Name: 12023.139
Type: Soil
Class: Lunar
Subclass: Maria
Particle Size: Fine
Sample No.: 12023.139
Owner: JHU
Wavelength range: IR
Origin: Apollo 12 landing site via the NASA Lunar Sample Repository at Johnson 
Space Center, Houston, TX.
Description:  This sample is one of a suite of soils of similar chemistry, but 
different exposure ages, from the Apollo 12 mare site.  This sample has the 
greatest exposure age of the three soils of that suite (Is/FeO=60).



Measurement:  Directional (10 degree) hemispherical reflectance
First Column:  X
Second Column:  Y
X Units:  Wavelength (micrometers)
Y Units:  Reflectance (percent)
First X Value:  14.011
Last X Value:  2.079
Number of X Values:  2124
Additional information:  None

14.011	1.3276
13.973	1.1928
13.936	1.2736
13.899	1.2452
13.861	1.2400
13.824	1.3411
13.788	1.3437
13.751	1.2923
13.715	1.2189
13.679	1.2314
13.643	1.2622
13.607	1.3096
13.571	1.3491
13.536	1.2674
13.500	1.2658
13.465	1.3179
13.430	1.3607
13.396	1.3702
13.361	1.3785
13.327	1.3690
13.293	1.3643
13.259	1.3666
13.225	1.4351
13.191	1.4453
13.158	1.4663
13.124	1.4678
13.091	1.4671
13.058	1.5216
13.026	1.5637
12.993	1.5334
12.960	1.5651
12.928	1.6026
12.896	1.6144
12.864	1.6129
12.832	1.5987
12.800	1.6262
12.769	1.6799
12.737	1.7039
12.706	1.7283
12.675	1.7917
12.644	1.8327
12.614	1.8081
12.583	1.8301
12.552	1.8895
12.522	1.9241
12.492	1.9501
12.462	1.9632
12.432	2.0079
12.402	2.0580
12.373	2.0764
12.343	2.0963
12.314	2.1467
12.285	2.1621
12.256	2.1593
12.227	2.1633
12.198	2.1697
12.169	2.1637
12.141	2.1562
12.113	2.1641
12.084	2.1704
12.056	2.1709
12.028	2.1512
12.000	2.1231
11.973	2.0876
11.945	2.1036
11.918	2.0885
11.890	2.0640
11.863	2.0819
11.836	2.0920
11.809	2.0790
11.782	2.0982
11.755	2.1413
11.729	2.1522
11.702	2.1219
11.676	2.1071
11.650	2.1320
11.624	2.1586
11.598	2.1865
11.572	2.1946
11.546	2.1841
11.520	2.1832
11.495	2.1910
11.469	2.1922
11.444	2.1910
11.419	2.2438
11.394	2.2559
11.369	2.2310
11.344	2.1931
11.319	2.1964
11.294	2.1730
11.270	2.1766
11.245	2.1629
11.221	2.1503
11.197	2.1392
11.173	2.1240
11.149	2.1417
11.125	2.1415
11.101	2.1038
11.077	2.0705
11.054	2.0960
11.030	2.1041
11.007	2.0662
10.983	2.0617
10.960	2.0859
10.937	2.0790
10.914	2.0906
10.891	2.1148
10.868	2.1247
10.846	2.1126
10.823	2.1051
10.800	2.1200
10.778	2.1046
10.755	2.0849
10.733	2.0736
10.711	2.0849
10.689	2.0674
10.667	2.0582
10.645	2.0553
10.623	2.0082
10.602	1.9753
10.580	1.9857
10.558	1.9719
10.537	1.9402
10.516	1.9634
10.494	1.9736
10.473	1.9393
10.452	1.9265
10.431	1.9182
10.410	1.9016
10.389	1.8863
10.368	1.8426
10.348	1.8072
10.327	1.8275
10.306	1.8211
10.286	1.8067
10.266	1.8076
10.245	1.7771
10.225	1.7586
10.205	1.7647
10.185	1.7597
10.165	1.7693
10.145	1.7747
10.125	1.7749
10.106	1.7586
10.086	1.7254
10.066	1.7068
10.047	1.7069
10.027	1.7373
10.008	1.7273
9.9887	1.7069
9.9695	1.7181
9.9504	1.7285
9.9313	1.7148
9.9123	1.7157
9.8934	1.6954
9.8746	1.6490
9.8558	1.6613
9.8371	1.6716
9.8185	1.6544
9.7999	1.6646
9.7814	1.6728
9.7630	1.6828
9.7447	1.6778
9.7264	1.6733
9.7082	1.6610
9.6900	1.6482
9.6719	1.6636
9.6539	1.6485
9.6360	1.6603
9.6181	1.6810
9.6003	1.6636
9.5825	1.6387
9.5649	1.6477
9.5472	1.6605
9.5297	1.6645
9.5122	1.6556
9.4948	1.6285
9.4774	1.6098
9.4601	1.6070
9.4429	1.6302
9.4257	1.6405
9.4086	1.6262
9.3916	1.6184
9.3746	1.6352
9.3577	1.6141
9.3408	1.5981
9.3240	1.6109
9.3073	1.6163
9.2906	1.6011
9.2740	1.5808
9.2574	1.5853
9.2409	1.5812
9.2245	1.5940
9.2081	1.6037
9.1918	1.5801
9.1755	1.5611
9.1593	1.5807
9.1431	1.5623
9.1270	1.5270
9.1110	1.5216
9.0950	1.4881
9.0791	1.4500
9.0632	1.4412
9.0474	1.4415
9.0316	1.4169
9.0159	1.3790
9.0003	1.3525
8.9847	1.3198
8.9691	1.2660
8.9536	1.2506
8.9382	1.2158
8.9228	1.1954
8.9075	1.1742
8.8922	1.1585
8.8770	1.1180
8.8618	1.0720
8.8467	1.0223
8.8316	1.0096
8.8166	0.99250
8.8016	0.94180
8.7867	0.95200
8.7718	0.96520
8.7570	0.93330
8.7422	0.92930
8.7275	0.94630
8.7129	0.95360
8.6982	0.92910
8.6837	0.87460
8.6692	0.85140
8.6547	0.86020
8.6403	0.88050
8.6259	0.86720
8.6116	0.82080
8.5973	0.80610
8.5830	0.79520
8.5688	0.80700
8.5547	0.81560
8.5406	0.82560
8.5266	0.82340
8.5126	0.78410
8.4986	0.75520
8.4847	0.76420
8.4708	0.77370
8.4570	0.77510
8.4432	0.77650
8.4295	0.77860
8.4158	0.75020
8.4022	0.71660
8.3886	0.72370
8.3750	0.73010
8.3615	0.73790
8.3481	0.73270
8.3347	0.73390
8.3213	0.75180
8.3079	0.73630
8.2946	0.75410
8.2814	0.77580
8.2682	0.76800
8.2550	0.77030
8.2419	0.77790
8.2288	0.81250
8.2158	0.85130
8.2028	0.88660
8.1898	0.90890
8.1769	0.91270
8.1640	0.94960
8.1512	1.0036
8.1384	1.0276
8.1256	1.0555
8.1129	1.0765
8.1002	1.1395
8.0876	1.2092
8.0750	1.2653
8.0624	1.3344
8.0499	1.3906
8.0374	1.4349
8.0250	1.4988
8.0126	1.5983
8.0002	1.6873
7.9879	1.7709
7.9756	1.8713
7.9634	1.9686
7.9512	2.0513
7.9390	2.1281
7.9268	2.2306
7.9147	2.3426
7.9027	2.4408
7.8906	2.5526
7.8786	2.6682
7.8667	2.7731
7.8548	2.8731
7.8429	2.9526
7.8310	3.0374
7.8192	3.1461
7.8075	3.2378
7.7957	3.3291
7.7840	3.4324
7.7723	3.5418
7.7607	3.6581
7.7491	3.7346
7.7375	3.8303
7.7260	3.9318
7.7145	4.0436
7.7031	4.1564
7.6916	4.2506
7.6802	4.3361
7.6689	4.4260
7.6575	4.5457
7.6462	4.6333
7.6350	4.6899
7.6238	4.7967
7.6126	4.9137
7.6014	5.0077
7.5903	5.0823
7.5792	5.1818
7.5681	5.2708
7.5571	5.3686
7.5461	5.4544
7.5351	5.5401
7.5242	5.6485
7.5133	5.7419
7.5024	5.8152
7.4916	5.8937
7.4807	6.0035
7.4700	6.0957
7.4592	6.1821
7.4485	6.2695
7.4378	6.3485
7.4272	6.4407
7.4165	6.5347
7.4059	6.6142
7.3954	6.6810
7.3848	6.7585
7.3743	6.8520
7.3639	6.9392
7.3534	7.0161
7.3430	7.0868
7.3326	7.1795
7.3223	7.2622
7.3119	7.3375
7.3016	7.3903
7.2914	7.4654
7.2811	7.5448
7.2709	7.6278
7.2607	7.6934
7.2506	7.7546
7.2404	7.8296
7.2303	7.8829
7.2203	7.9518
7.2102	8.0316
7.2002	8.0968
7.1902	8.1586
7.1803	8.2232
7.1703	8.3044
7.1604	8.3956
7.1506	8.4631
7.1407	8.5001
7.1309	8.5275
7.1211	8.5890
7.1113	8.6632
7.1016	8.7231
7.0919	8.7733
7.0822	8.8379
7.0725	8.8931
7.0629	8.9310
7.0533	8.9950
7.0437	9.0758
7.0341	9.1271
7.0246	9.1868
7.0151	9.2330
7.0056	9.2486
6.9962	9.3165
6.9867	9.3987
6.9773	9.4645
6.9679	9.5141
6.9586	9.5529
6.9493	9.5840
6.9400	9.6207
6.9307	9.6628
6.9214	9.7189
6.9122	9.7653
6.9030	9.8122
6.8938	9.8447
6.8847	9.8795
6.8755	9.9266
6.8664	9.9681
6.8573	9.9967
6.8483	10.045
6.8393	10.093
6.8302	10.125
6.8213	10.143
6.8123	10.188
6.8034	10.213
6.7944	10.212
6.7855	10.230
6.7767	10.256
6.7678	10.299
6.7590	10.328
6.7502	10.347
6.7414	10.357
6.7327	10.373
6.7239	10.406
6.7152	10.416
6.7065	10.418
6.6979	10.421
6.6892	10.418
6.6806	10.446
6.6720	10.449
6.6634	10.447
6.6549	10.474
6.6464	10.473
6.6378	10.462
6.6294	10.490
6.6209	10.507
6.6124	10.509
6.6040	10.523
6.5956	10.546
6.5872	10.563
6.5789	10.561
6.5705	10.561
6.5622	10.580
6.5539	10.619
6.5456	10.631
6.5374	10.653
6.5292	10.673
6.5209	10.684
6.5128	10.693
6.5046	10.703
6.4964	10.727
6.4883	10.765
6.4802	10.775
6.4721	10.776
6.4640	10.811
6.4560	10.832
6.4480	10.850
6.4399	10.864
6.4320	10.855
6.4240	10.865
6.4160	10.896
6.4081	10.913
6.4002	10.900
6.3923	10.885
6.3844	10.899
6.3766	10.930
6.3687	10.928
6.3609	10.934
6.3531	10.945
6.3454	10.926
6.3376	10.932
6.3299	10.955
6.3221	10.951
6.3144	10.945
6.3068	10.962
6.2991	10.988
6.2914	10.969
6.2838	10.955
6.2762	10.971
6.2686	10.985
6.2611	10.977
6.2535	10.990
6.2460	11.003
6.2385	10.996
6.2310	11.004
6.2235	11.019
6.2160	11.037
6.2086	11.054
6.2011	11.077
6.1937	11.092
6.1863	11.126
6.1790	11.140
6.1716	11.141
6.1643	11.166
6.1570	11.181
6.1496	11.194
6.1424	11.201
6.1351	11.208
6.1278	11.247
6.1206	11.294
6.1134	11.332
6.1062	11.342
6.0990	11.352
6.0918	11.383
6.0847	11.414
6.0776	11.415
6.0704	11.416
6.0633	11.431
6.0563	11.474
6.0492	11.488
6.0421	11.474
6.0351	11.489
6.0281	11.515
6.0211	11.568
6.0141	11.608
6.0071	11.626
6.0002	11.652
5.9932	11.699
5.9863	11.752
5.9794	11.799
5.9725	11.858
5.9657	11.881
5.9588	11.899
5.9520	11.958
5.9451	12.031
5.9383	12.083
5.9315	12.139
5.9247	12.176
5.9180	12.213
5.9112	12.276
5.9045	12.310
5.8978	12.340
5.8911	12.401
5.8844	12.465
5.8777	12.499
5.8711	12.537
5.8644	12.580
5.8578	12.618
5.8512	12.669
5.8446	12.694
5.8380	12.722
5.8314	12.786
5.8249	12.853
5.8184	12.873
5.8118	12.898
5.8053	12.933
5.7988	12.972
5.7923	13.029
5.7859	13.051
5.7794	13.067
5.7730	13.111
5.7666	13.162
5.7602	13.201
5.7538	13.217
5.7474	13.218
5.7410	13.240
5.7347	13.281
5.7283	13.296
5.7220	13.295
5.7157	13.317
5.7094	13.339
5.7031	13.343
5.6969	13.354
5.6906	13.361
5.6844	13.370
5.6782	13.387
5.6719	13.397
5.6657	13.400
5.6596	13.428
5.6534	13.457
5.6472	13.471
5.6411	13.491
5.6349	13.521
5.6288	13.547
5.6227	13.568
5.6166	13.611
5.6106	13.647
5.6045	13.648
5.5984	13.688
5.5924	13.717
5.5864	13.739
5.5804	13.797
5.5744	13.850
5.5684	13.870
5.5624	13.871
5.5564	13.908
5.5505	13.931
5.5445	13.930
5.5386	13.950
5.5327	13.969
5.5268	13.977
5.5209	13.974
5.5151	13.983
5.5092	13.993
5.5033	13.992
5.4975	13.977
5.4917	14.004
5.4859	14.030
5.4801	14.029
5.4743	14.018
5.4685	14.016
5.4628	14.028
5.4570	14.000
5.4513	13.987
5.4455	14.002
5.4398	13.998
5.4341	14.007
5.4284	14.029
5.4228	14.026
5.4171	14.012
5.4114	14.013
5.4058	14.040
5.4002	14.038
5.3945	14.026
5.3889	14.025
5.3833	14.017
5.3778	14.013
5.3722	14.013
5.3666	14.002
5.3611	14.022
5.3555	14.031
5.3500	14.023
5.3445	14.029
5.3390	14.040
5.3335	14.029
5.3280	14.009
5.3225	14.011
5.3171	14.036
5.3116	14.065
5.3062	14.104
5.3008	14.120
5.2954	14.126
5.2900	14.144
5.2846	14.167
5.2792	14.188
5.2738	14.199
5.2684	14.210
5.2631	14.252
5.2578	14.279
5.2524	14.317
5.2471	14.372
5.2418	14.397
5.2365	14.424
5.2312	14.465
5.2260	14.519
5.2207	14.564
5.2154	14.596
5.2102	14.632
5.2050	14.680
5.1998	14.716
5.1945	14.739
5.1893	14.784
5.1842	14.830
5.1790	14.868
5.1738	14.913
5.1686	14.940
5.1635	14.960
5.1584	14.995
5.1532	15.043
5.1481	15.110
5.1430	15.156
5.1379	15.192
5.1328	15.224
5.1277	15.260
5.1227	15.315
5.1176	15.351
5.1126	15.390
5.1075	15.435
5.1025	15.484
5.0975	15.521
5.0925	15.542
5.0875	15.584
5.0825	15.628
5.0775	15.652
5.0726	15.698
5.0676	15.751
5.0627	15.796
5.0577	15.828
5.0528	15.869
5.0479	15.914
5.0430	15.949
5.0380	15.992
5.0332	16.049
5.0283	16.096
5.0234	16.134
5.0185	16.190
5.0137	16.259
5.0088	16.291
5.0040	16.319
4.9992	16.371
4.9944	16.424
4.9896	16.481
4.9848	16.527
4.9800	16.568
4.9752	16.607
4.9704	16.645
4.9657	16.712
4.9609	16.771
4.9562	16.827
4.9514	16.872
4.9467	16.917
4.9420	16.986
4.9373	17.041
4.9326	17.080
4.9279	17.128
4.9232	17.194
4.9186	17.251
4.9139	17.302
4.9092	17.347
4.9046	17.389
4.9000	17.426
4.8953	17.467
4.8907	17.518
4.8861	17.570
4.8815	17.610
4.8769	17.652
4.8723	17.694
4.8678	17.732
4.8632	17.772
4.8586	17.801
4.8541	17.870
4.8495	17.936
4.8450	17.981
4.8405	18.020
4.8360	18.044
4.8315	18.085
4.8270	18.152
4.8225	18.183
4.8180	18.191
4.8135	18.226
4.8090	18.281
4.8046	18.341
4.8001	18.366
4.7957	18.390
4.7913	18.436
4.7868	18.471
4.7824	18.506
4.7780	18.539
4.7736	18.578
4.7692	18.609
4.7648	18.640
4.7605	18.681
4.7561	18.706
4.7517	18.754
4.7474	18.784
4.7431	18.818
4.7387	18.861
4.7344	18.896
4.7301	18.938
4.7258	18.972
4.7215	19.011
4.7172	19.054
4.7129	19.094
4.7086	19.128
4.7043	19.161
4.7000	19.191
4.6958	19.235
4.6915	19.292
4.6873	19.309
4.6831	19.334
4.6788	19.380
4.6746	19.411
4.6704	19.435
4.6662	19.477
4.6620	19.503
4.6578	19.528
4.6536	19.570
4.6495	19.614
4.6453	19.648
4.6411	19.670
4.6370	19.692
4.6328	19.733
4.6287	19.763
4.6246	19.788
4.6205	19.806
4.6163	19.836
4.6122	19.861
4.6081	19.873
4.6040	19.900
4.6000	19.937
4.5959	19.957
4.5918	19.969
4.5877	19.994
4.5837	20.031
4.5796	20.042
4.5756	20.055
4.5716	20.078
4.5675	20.097
4.5635	20.116
4.5595	20.125
4.5555	20.143
4.5515	20.177
4.5475	20.192
4.5435	20.193
4.5395	20.210
4.5356	20.234
4.5316	20.247
4.5276	20.261
4.5237	20.276
4.5197	20.283
4.5158	20.291
4.5119	20.296
4.5080	20.305
4.5040	20.335
4.5001	20.337
4.4962	20.319
4.4923	20.335
4.4884	20.353
4.4846	20.354
4.4807	20.362
4.4768	20.380
4.4730	20.378
4.4691	20.378
4.4652	20.388
4.4614	20.403
4.4576	20.417
4.4537	20.422
4.4499	20.425
4.4461	20.423
4.4423	20.428
4.4385	20.443
4.4347	20.449
4.4309	20.457
4.4271	20.456
4.4233	20.447
4.4196	20.454
4.4158	20.460
4.4120	20.454
4.4083	20.465
4.4045	20.491
4.4008	20.497
4.3971	20.482
4.3934	20.472
4.3896	20.491
4.3859	20.503
4.3822	20.486
4.3785	20.505
4.3748	20.514
4.3711	20.503
4.3674	20.509
4.3638	20.520
4.3601	20.539
4.3564	20.549
4.3528	20.541
4.3491	20.546
4.3455	20.546
4.3418	20.542
4.3382	20.562
4.3346	20.568
4.3310	20.563
4.3273	20.562
4.3237	20.566
4.3201	20.564
4.3165	20.565
4.3129	20.562
4.3094	20.586
4.3058	20.604
4.3022	20.605
4.2986	20.591
4.2951	20.600
4.2915	20.609
4.2880	20.603
4.2844	20.614
4.2809	20.622
4.2774	20.609
4.2738	20.616
4.2703	20.618
4.2668	20.618
4.2633	20.614
4.2598	20.620
4.2563	20.621
4.2528	20.613
4.2493	20.630
4.2458	20.639
4.2424	20.642
4.2389	20.648
4.2354	20.634
4.2320	20.611
4.2285	20.613
4.2251	20.622
4.2216	20.631
4.2182	20.632
4.2148	20.614
4.2113	20.626
4.2079	20.632
4.2045	20.622
4.2011	20.623
4.1977	20.622
4.1943	20.629
4.1909	20.621
4.1875	20.623
4.1841	20.624
4.1808	20.613
4.1774	20.604
4.1740	20.607
4.1707	20.608
4.1673	20.616
4.1640	20.593
4.1606	20.575
4.1573	20.604
4.1540	20.616
4.1506	20.615
4.1473	20.607
4.1440	20.615
4.1407	20.613
4.1374	20.609
4.1341	20.583
4.1308	20.574
4.1275	20.583
4.1242	20.589
4.1209	20.580
4.1177	20.579
4.1144	20.589
4.1111	20.585
4.1079	20.575
4.1046	20.561
4.1014	20.568
4.0981	20.583
4.0949	20.571
4.0917	20.563
4.0884	20.572
4.0852	20.560
4.0820	20.565
4.0788	20.583
4.0756	20.588
4.0724	20.574
4.0692	20.549
4.0660	20.549
4.0628	20.557
4.0596	20.540
4.0565	20.531
4.0533	20.547
4.0501	20.548
4.0470	20.544
4.0438	20.528
4.0406	20.527
4.0375	20.528
4.0344	20.512
4.0312	20.510
4.0281	20.542
4.0250	20.553
4.0218	20.539
4.0187	20.517
4.0156	20.507
4.0125	20.519
4.0094	20.523
4.0063	20.501
4.0032	20.497
4.0001	20.512
3.9970	20.526
3.9940	20.501
3.9909	20.489
3.9878	20.504
3.9847	20.482
3.9817	20.477
3.9786	20.467
3.9756	20.463
3.9725	20.484
3.9695	20.484
3.9665	20.475
3.9634	20.466
3.9604	20.466
3.9574	20.468
3.9544	20.465
3.9513	20.474
3.9483	20.473
3.9453	20.467
3.9423	20.454
3.9393	20.438
3.9363	20.451
3.9333	20.466
3.9304	20.460
3.9274	20.440
3.9244	20.408
3.9214	20.398
3.9185	20.397
3.9155	20.395
3.9126	20.403
3.9096	20.389
3.9067	20.360
3.9037	20.343
3.9008	20.344
3.8979	20.360
3.8949	20.366
3.8920	20.378
3.8891	20.365
3.8862	20.351
3.8833	20.358
3.8804	20.359
3.8775	20.348
3.8746	20.329
3.8717	20.319
3.8688	20.314
3.8659	20.325
3.8630	20.315
3.8601	20.299
3.8573	20.302
3.8544	20.281
3.8515	20.273
3.8487	20.276
3.8458	20.266
3.8430	20.258
3.8401	20.273
3.8373	20.277
3.8344	20.266
3.8316	20.248
3.8288	20.235
3.8259	20.223
3.8231	20.217
3.8203	20.221
3.8175	20.234
3.8147	20.249
3.8119	20.246
3.8091	20.216
3.8063	20.210
3.8035	20.208
3.8007	20.159
3.7979	20.137
3.7951	20.148
3.7924	20.150
3.7896	20.160
3.7868	20.156
3.7841	20.150
3.7813	20.143
3.7785	20.135
3.7758	20.118
3.7730	20.087
3.7703	20.095
3.7676	20.117
3.7648	20.120
3.7621	20.107
3.7594	20.087
3.7566	20.085
3.7539	20.077
3.7512	20.056
3.7485	20.032
3.7458	20.041
3.7431	20.048
3.7404	20.042
3.7377	20.054
3.7350	20.054
3.7323	20.040
3.7296	20.019
3.7269	20.010
3.7242	20.030
3.7216	20.033
3.7189	19.993
3.7162	19.975
3.7136	19.982
3.7109	19.983
3.7083	19.971
3.7056	19.961
3.7030	19.949
3.7003	19.965
3.6977	19.941
3.6950	19.920
3.6924	19.917
3.6898	19.922
3.6872	19.939
3.6845	19.910
3.6819	19.892
3.6793	19.895
3.6767	19.899
3.6741	19.896
3.6715	19.881
3.6689	19.865
3.6663	19.842
3.6637	19.849
3.6611	19.823
3.6585	19.814
3.6560	19.835
3.6534	19.841
3.6508	19.829
3.6482	19.822
3.6457	19.813
3.6431	19.803
3.6406	19.805
3.6380	19.792
3.6355	19.774
3.6329	19.779
3.6304	19.786
3.6278	19.767
3.6253	19.747
3.6227	19.748
3.6202	19.726
3.6177	19.716
3.6152	19.718
3.6127	19.717
3.6101	19.702
3.6076	19.695
3.6051	19.693
3.6026	19.680
3.6001	19.664
3.5976	19.661
3.5951	19.661
3.5926	19.662
3.5901	19.672
3.5876	19.665
3.5852	19.633
3.5827	19.604
3.5802	19.597
3.5777	19.611
3.5753	19.621
3.5728	19.613
3.5704	19.609
3.5679	19.597
3.5654	19.585
3.5630	19.572
3.5605	19.555
3.5581	19.556
3.5557	19.581
3.5532	19.568
3.5508	19.551
3.5484	19.534
3.5459	19.525
3.5435	19.535
3.5411	19.526
3.5387	19.518
3.5363	19.507
3.5338	19.495
3.5314	19.477
3.5290	19.479
3.5266	19.498
3.5242	19.500
3.5218	19.458
3.5195	19.441
3.5171	19.478
3.5147	19.521
3.5123	19.495
3.5099	19.462
3.5075	19.456
3.5052	19.479
3.5028	19.470
3.5004	19.433
3.4981	19.426
3.4957	19.427
3.4934	19.404
3.4910	19.386
3.4887	19.375
3.4863	19.373
3.4840	19.400
3.4816	19.406
3.4793	19.401
3.4770	19.392
3.4746	19.377
3.4723	19.367
3.4700	19.377
3.4677	19.362
3.4653	19.329
3.4630	19.295
3.4607	19.297
3.4584	19.309
3.4561	19.318
3.4538	19.320
3.4515	19.341
3.4492	19.332
3.4469	19.298
3.4446	19.283
3.4423	19.289
3.4400	19.291
3.4378	19.312
3.4355	19.320
3.4332	19.295
3.4309	19.268
3.4287	19.275
3.4264	19.271
3.4241	19.249
3.4219	19.257
3.4196	19.260
3.4174	19.242
3.4151	19.222
3.4129	19.226
3.4106	19.224
3.4084	19.202
3.4061	19.161
3.4039	19.165
3.4017	19.167
3.3994	19.148
3.3972	19.125
3.3950	19.132
3.3928	19.133
3.3906	19.128
3.3883	19.105
3.3861	19.091
3.3839	19.087
3.3817	19.090
3.3795	19.091
3.3773	19.083
3.3751	19.064
3.3729	19.070
3.3707	19.051
3.3685	19.021
3.3663	19.016
3.3641	19.024
3.3620	18.990
3.3598	18.984
3.3576	19.010
3.3554	18.985
3.3533	18.940
3.3511	18.931
3.3489	18.963
3.3468	18.961
3.3446	18.915
3.3425	18.883
3.3403	18.883
3.3382	18.881
3.3360	18.868
3.3339	18.837
3.3317	18.833
3.3296	18.838
3.3274	18.806
3.3253	18.779
3.3232	18.810
3.3210	18.826
3.3189	18.809
3.3168	18.799
3.3147	18.799
3.3126	18.793
3.3104	18.769
3.3083	18.772
3.3062	18.776
3.3041	18.755
3.3020	18.758
3.2999	18.751
3.2978	18.740
3.2957	18.736
3.2936	18.709
3.2915	18.703
3.2894	18.734
3.2874	18.699
3.2853	18.647
3.2832	18.659
3.2811	18.703
3.2790	18.691
3.2770	18.688
3.2749	18.663
3.2728	18.644
3.2708	18.628
3.2687	18.630
3.2666	18.631
3.2646	18.642
3.2625	18.630
3.2605	18.576
3.2584	18.570
3.2564	18.577
3.2543	18.590
3.2523	18.606
3.2503	18.587
3.2482	18.541
3.2462	18.540
3.2442	18.549
3.2421	18.524
3.2401	18.511
3.2381	18.521
3.2361	18.529
3.2340	18.514
3.2320	18.480
3.2300	18.470
3.2280	18.473
3.2260	18.461
3.2240	18.450
3.2220	18.453
3.2200	18.438
3.2180	18.406
3.2160	18.410
3.2140	18.438
3.2120	18.421
3.2100	18.392
3.2080	18.383
3.2060	18.390
3.2040	18.381
3.2021	18.373
3.2001	18.358
3.1981	18.317
3.1961	18.293
3.1942	18.302
3.1922	18.302
3.1902	18.313
3.1883	18.285
3.1863	18.308
3.1844	18.340
3.1824	18.311
3.1805	18.290
3.1785	18.277
3.1766	18.256
3.1746	18.263
3.1727	18.231
3.1707	18.221
3.1688	18.209
3.1669	18.197
3.1649	18.213
3.1630	18.234
3.1611	18.198
3.1591	18.156
3.1572	18.167
3.1553	18.158
3.1534	18.117
3.1515	18.133
3.1495	18.171
3.1476	18.149
3.1457	18.147
