Name: Fossiliferous Limestone 
Type:  Rocks
Class:  Sedimentary
Subclass: Limestone
Particle Size:  500 - 1500 Micrometers
Sample No.:  limestone.1
Owner:  JHU
Wavelength Range:  All
Origin:  Sample No. 355,  from the Hunt and Salisbury Collection at 
the U.S. Geological Survey, Denver, Co.
Description: Sample consists of a homogeneous microcrystalline 
carbonate matrix, with scattered flecks of reddish brown material 
and abundant fossils (primarily small bivalves) with recrystallized 
calcite. Some bivalves still show laminar structure. Very minor 
quartz was also noted in this section.

Measurement:  Directional (10 Degree) Hemispherical Reflectance
First Column:  X
Second Column:  Y  
X Units:  Wavelength (micrometers)
Y Units:  Reflectance (percent)
First X Value:  14.0112
Last X Value:  0.4
Number of X Values:  2844
Additional Information:  None 

14.0112	1.7906
13.9734	1.3437
13.9359	1.2604
13.8985	1.4434
13.8614	1.6994
13.8244	1.9595
13.7876	2.0746
13.7511	2.121
13.7147	2.3985
13.6785	2.5201
13.6425	2.5064
13.6067	2.4998
13.5711	2.5888
13.5356	2.7234
13.5004	2.7967
13.4653	2.8293
13.4304	2.868
13.3957	2.8965
13.3612	2.9003
13.3269	2.9694
13.2927	3.0393
13.2587	2.9594
13.2249	2.9307
13.1912	2.978
13.1577	2.9878
13.1244	2.8673
13.0913	2.8278
13.0583	2.8699
13.0255	2.8336
12.9929	2.7931
12.9604	2.8065
12.9281	2.8144
12.8959	2.8003
12.8639	2.8235
12.8321	2.8103
12.8004	2.8417
12.7688	2.8505
12.7375	2.8792
12.7063	2.8706
12.6752	2.8447
12.6443	2.8783
12.6135	2.9565
12.5829	2.9783
12.5524	2.9118
12.5221	2.8744
12.4919	2.9359
12.4619	2.9616
12.432	2.9752
12.4023	3.035
12.3727	3.0833
12.3432	3.1111
12.3139	3.1629
12.2847	3.1548
12.2557	3.1397
12.2268	3.1747
12.198	3.2472
12.1694	3.2371
12.1409	3.2058
12.1125	3.2252
12.0843	3.235
12.0562	3.2562
12.0282	3.2458
12.0003	3.3022
11.9726	3.351
11.945	3.3183
11.9176	3.3489
11.8903	3.3802
11.8631	3.3678
11.836	3.2888
11.809	3.0905
11.7822	2.9618
11.7555	3.1732
11.7289	3.4326
11.7024	3.658
11.676	3.7977
11.6498	3.9288
11.6237	4.1074
11.5977	4.259
11.5718	4.3875
11.546	4.4636
11.5203	4.454
11.4948	4.4074
11.4694	4.5327
11.444	4.8258
11.4188	5.189
11.3937	5.6219
11.3688	6.096
11.3439	6.3989
11.3191	6.7428
11.2944	7.8878
11.2699	9.5598
11.2455	10.0613
11.2211	9.4064
11.1969	8.6927
11.1727	8.2245
11.1487	7.8352
11.1248	7.434
11.101	7.0648
11.0773	6.7103
11.0536	6.4374
11.0301	6.1757
11.0067	5.9182
10.9834	5.7252
10.9602	5.5709
10.937	5.4728
10.914	5.4194
10.8911	5.3173
10.8682	5.2753
10.8455	5.194
10.8229	5.0931
10.8003	5.0029
10.7779	4.8969
10.7555	4.8059
10.7332	4.7169
10.7111	4.6419
10.689	4.5684
10.667	4.5356
10.6451	4.5151
10.6233	4.532
10.6015	4.5703
10.5799	4.5151
10.5584	4.4289
10.5369	4.4067
10.5155	4.3992
10.4942	4.3552
10.473	4.2865
10.4519	4.1925
10.4309	4.1416
10.4099	4.1042
10.3891	4.0427
10.3683	3.9882
10.3476	3.9243
10.327	3.8312
10.3065	3.759
10.286	3.7193
10.2656	3.6288
10.2454	3.5377
10.2251	3.4965
10.205	3.435
10.185	3.3817
10.165	3.3666
10.1451	3.3678
10.1253	3.3453
10.1056	3.3001
10.0859	3.2922
10.0663	3.2599
10.0468	3.2177
10.0274	3.2137
10.008	3.2501
9.9887	3.2113
9.9695	3.2053
9.9504	3.2285
9.9313	3.2149
9.9123	3.2118
9.8934	3.2228
9.8746	3.1774
9.8558	3.1711
9.8371	3.1898
9.8185	3.1869
9.7999	3.1855
9.7814	3.2275
9.763	3.2343
9.7447	3.2161
9.7264	3.2795
9.7082	3.324
9.69	3.2901
9.6719	3.2965
9.6539	3.3027
9.636	3.3505
9.6181	3.4116
9.6003	3.4486
9.5825	3.446
9.5649	3.4815
9.5472	3.5535
9.5297	3.5549
9.5122	3.5752
9.4948	3.6393
9.4774	3.6549
9.4601	3.6285
9.4429	3.6478
9.4257	3.6863
9.4086	3.7374
9.3916	3.7685
9.3746	3.7977
9.3577	3.8559
9.3408	3.9233
9.324	3.9617
9.3073	3.9999
9.2906	4.0662
9.274	4.1253
9.2574	4.12
9.2409	4.0973
9.2245	4.0834
9.2081	4.1205
9.1918	4.1511
9.1755	4.2229
9.1593	4.2707
9.1431	4.2744
9.127	4.3145
9.111	4.3449
9.095	4.3502
9.0791	4.3459
9.0632	4.3669
9.0474	4.404
9.0316	4.432
9.0159	4.4514
9.0003	4.4238
8.9847	4.417
8.9691	4.4351
8.9536	4.466
8.9382	4.4772
8.9228	4.4514
8.9075	4.4708
8.8922	4.5119
8.877	4.5121
8.8618	4.5428
8.8467	4.6409
8.8316	4.7091
8.8166	4.7262
8.8016	4.7609
8.7867	4.8485
8.7718	4.9229
8.757	4.9314
8.7422	5.0089
8.7275	5.0668
8.7129	5.067
8.6982	5.0505
8.6837	5.0833
8.6692	5.1153
8.6547	5.1055
8.6403	5.06
8.6259	4.9911
8.6116	4.9156
8.5973	4.872
8.583	4.9608
8.5688	5.0972
8.5547	5.1794
8.5406	5.2363
8.5266	5.3331
8.5126	5.3799
8.4986	5.4209
8.4847	5.4838
8.4708	5.4931
8.457	5.5404
8.4432	5.6484
8.4295	5.7429
8.4158	5.8082
8.4022	5.8991
8.3886	6.0053
8.375	6.1509
8.3615	6.298
8.3481	6.4117
8.3347	6.5219
8.3213	6.6442
8.3079	6.7265
8.2946	6.82
8.2814	6.9274
8.2682	6.9903
8.255	7.0784
8.2419	7.1595
8.2288	7.226
8.2158	7.3057
8.2028	7.3998
8.1898	7.4438
8.1769	7.4747
8.164	7.4285
8.1512	7.3988
8.1384	7.411
8.1256	7.4315
8.1129	7.4158
8.1002	7.3526
8.0876	7.3141
8.075	7.2954
8.0624	7.2926
8.0499	7.3284
8.0374	7.3923
8.025	7.4775
8.0126	7.5653
8.0002	7.634
7.9879	7.6551
7.9756	7.6513
7.9634	7.6752
7.9512	7.6639
7.939	7.6156
7.9268	7.5328
7.9147	7.4823
7.9027	7.4694
7.8906	7.4624
7.8786	7.4873
7.8667	7.5728
7.8548	7.6213
7.8429	7.639
7.831	7.6247
7.8192	7.5972
7.8075	7.5522
7.7957	7.5337
7.784	7.5492
7.7723	7.601
7.7607	7.6337
7.7491	7.6038
7.7375	7.5925
7.726	7.6354
7.7145	7.6285
7.7031	7.5529
7.6916	7.4687
7.6802	7.3923
7.6689	7.3241
7.6575	7.2641
7.6462	7.1868
7.635	7.1165
7.6238	7.0215
7.6126	6.9507
7.6014	6.9222
7.5903	6.9004
7.5792	6.9081
7.5681	6.9559
7.5571	6.9751
7.5461	6.9598
7.5351	6.9621
7.5242	6.9787
7.5133	6.9993
7.5024	7.0038
7.4916	7.0131
7.4807	7.0353
7.47	7.0157
7.4592	6.9698
7.4485	6.937
7.4378	6.9064
7.4272	6.9105
7.4165	6.9107
7.4059	6.8806
7.3954	6.859
7.3848	6.8426
7.3743	6.7916
7.3639	6.6944
7.3534	6.5841
7.343	6.4698
7.3326	6.3501
7.3223	6.2497
7.3119	6.1446
7.3016	6.0113
7.2914	5.8697
7.2811	5.7407
7.2709	5.6659
7.2607	5.6073
7.2506	5.5606
7.2404	5.5457
7.2303	5.4878
7.2203	5.4309
7.2102	5.43
7.2002	5.427
7.1902	5.4938
7.1803	5.6068
7.1703	5.7032
7.1604	5.8209
7.1506	5.9554
7.1407	6.0729
7.1309	6.2073
7.1211	6.4623
7.1113	6.8334
7.1016	7.1792
7.0919	7.4354
7.0822	7.588
7.0725	7.6364
7.0629	7.6194
7.0533	7.5773
7.0437	7.5404
7.0341	7.5153
7.0246	7.5223
7.0151	7.5402
7.0056	7.5244
6.9962	7.4906
6.9867	7.4624
6.9773	7.433
6.9679	7.4076
6.9586	7.3973
6.9493	7.4131
6.94	7.4277
6.9307	7.4847
6.9214	7.5339
6.9122	7.5472
6.903	7.5988
6.8938	7.6629
6.8847	7.7228
6.8755	7.761
6.8664	7.7887
6.8573	7.8563
6.8483	7.9156
6.8393	7.9986
6.8302	8.0654
6.8213	8.118
6.8123	8.2055
6.8034	8.2879
6.7944	8.3529
6.7855	8.4042
6.7767	8.4719
6.7678	8.5597
6.759	8.6786
6.7502	8.7812
6.7414	8.8841
6.7327	8.9707
6.7239	9.0815
6.7152	9.2171
6.7065	9.3734
6.6979	9.5241
6.6892	9.6506
6.6806	9.7806
6.672	9.9569
6.6634	10.1715
6.6549	10.3848
6.6464	10.557
6.6378	10.7345
6.6294	10.9963
6.6209	11.318
6.6124	11.6456
6.604	11.9473
6.5956	12.248
6.5872	12.5926
6.5789	12.8725
6.5705	13.1273
6.5622	13.4037
6.5539	13.646
6.5456	13.8786
6.5374	14.1217
6.5292	14.3332
6.5209	14.494
6.5128	14.6555
6.5046	14.7765
6.4964	14.8497
6.4883	14.9818
6.4802	15.1782
6.4721	15.3228
6.464	15.4077
6.456	15.3823
6.448	15.239
6.4399	14.954
6.432	14.4394
6.424	13.7834
6.416	12.9931
6.4081	12.2818
6.4002	11.6516
6.3923	10.9845
6.3844	10.3556
6.3766	9.7622
6.3687	9.1961
6.3609	8.6482
6.3531	8.0594
6.3454	7.4237
6.3376	6.749
6.3299	6.1312
6.3221	5.6599
6.3144	5.3012
6.3068	4.9988
6.2991	4.7696
6.2914	4.6231
6.2838	4.5791
6.2762	4.578
6.2686	4.5038
6.2611	4.4033
6.2535	4.3318
6.246	4.2047
6.2385	4.0169
6.231	3.8616
6.2235	3.7399
6.216	3.6011
6.2086	3.458
6.2011	3.3402
6.1937	3.2197
6.1863	3.0993
6.179	3.0323
6.1716	2.9694
6.1643	2.8761
6.157	2.8421
6.1496	2.7967
6.1424	2.7161
6.1351	2.6533
6.1278	2.6155
6.1206	2.5818
6.1134	2.5225
6.1062	2.4825
6.099	2.4469
6.0918	2.3984
6.0847	2.3825
6.0776	2.3693
6.0704	2.3406
6.0633	2.3084
6.0563	2.2646
6.0492	2.2425
6.0421	2.2364
6.0351	2.2787
6.0281	2.3212
6.0211	2.3101
6.0141	2.305
6.0071	2.288
6.0002	2.3057
5.9932	2.3277
5.9863	2.2971
5.9794	2.2762
5.9725	2.2734
5.9657	2.2691
5.9588	2.2581
5.952	2.2581
5.9451	2.249
5.9383	2.2294
5.9315	2.2407
5.9247	2.2581
5.918	2.2478
5.9112	2.2284
5.9045	2.2507
5.8978	2.2593
5.8911	2.2402
5.8844	2.2299
5.8777	2.2274
5.8711	2.2009
5.8644	2.1935
5.8578	2.1952
5.8512	2.155
5.8446	2.1502
5.838	2.1187
5.8314	2.0629
5.8249	2.0643
5.8184	2.0526
5.8118	2.0143
5.8053	2.0052
5.7988	2.0052
5.7923	1.9533
5.7859	1.9129
5.7794	1.9296
5.773	1.9042
5.7666	1.8588
5.7602	1.8641
5.7538	1.8865
5.7474	1.8753
5.741	1.8853
5.7347	1.8913
5.7283	1.9117
5.722	1.9521
5.7157	1.9545
5.7094	1.9617
5.7031	1.988
5.6969	1.9932
5.6906	1.9985
5.6844	2.0375
5.6782	2.0775
5.6719	2.0949
5.6657	2.1131
5.6596	2.1517
5.6534	2.1799
5.6472	2.1846
5.6411	2.1818
5.6349	2.1743
5.6288	2.1478
5.6227	2.1043
5.6166	2.0365
5.6106	1.943
5.6045	1.8536
5.5984	1.7482
5.5924	1.6298
5.5864	1.5027
5.5804	1.3807
5.5744	1.3203
5.5684	1.2817
5.5624	1.223
5.5564	1.2248
5.5505	1.32
5.5445	1.4432
5.5386	1.6408
5.5327	1.8942
5.5268	2.094
5.5209	2.2653
5.5151	2.4476
5.5092	2.6185
5.5033	2.7594
5.4975	2.9131
5.4917	3.0371
5.4859	3.1278
5.4801	3.2396
5.4743	3.3835
5.4685	3.5025
5.4628	3.6235
5.457	3.746
5.4513	3.885
5.4455	4.0155
5.4398	4.1526
5.4341	4.2875
5.4284	4.4074
5.4228	4.5476
5.4171	4.6774
5.4114	4.827
5.4058	4.9571
5.4002	5.0842
5.3945	5.2041
5.3889	5.2849
5.3833	5.3694
5.3778	5.4656
5.3722	5.5591
5.3666	5.6566
5.3611	5.7364
5.3555	5.8455
5.35	5.9577
5.3445	6.0561
5.339	6.1889
5.3335	6.347
5.328	6.4819
5.3225	6.6263
5.3171	6.7918
5.3116	6.9505
5.3062	7.0861
5.3008	7.2217
5.2954	7.372
5.29	7.5469
5.2846	7.7055
5.2792	7.8239
5.2738	7.9773
5.2684	8.1512
5.2631	8.3317
5.2578	8.5343
5.2524	8.7209
5.2471	8.9135
5.2418	9.1284
5.2365	9.3475
5.2312	9.523
5.226	9.7132
5.2207	9.8892
5.2154	10.0653
5.2102	10.2273
5.205	10.3692
5.1998	10.5319
5.1945	10.6747
5.1893	10.7749
5.1842	10.8907
5.179	10.9932
5.1738	11.0421
5.1686	11.0786
5.1635	11.1867
5.1584	11.3339
5.1532	11.4051
5.1481	11.4586
5.143	11.5135
5.1379	11.5729
5.1328	11.6234
5.1277	11.6312
5.1227	11.527
5.1176	11.2245
5.1126	10.5369
5.1075	9.4767
5.1025	8.4616
5.0975	8.218
5.0925	9.1614
5.0875	10.4776
5.0825	11.4178
5.0775	11.9717
5.0726	12.2672
5.0676	12.4026
5.0627	12.4935
5.0577	12.5808
5.0528	12.6338
5.0479	12.6426
5.043	12.6285
5.038	12.6459
5.0332	12.6751
5.0283	12.6507
5.0234	12.6361
5.0185	12.6603
5.0137	12.672
5.0088	12.6852
5.004	12.6768
4.9992	12.6794
4.9944	12.7143
4.9896	12.7428
4.9848	12.7807
4.98	12.8371
4.9752	12.8943
4.9704	12.9354
4.9657	13.0116
4.9609	13.074
4.9562	13.114
4.9514	13.1472
4.9467	13.1747
4.942	13.2068
4.9373	13.2232
4.9326	13.23
4.9279	13.268
4.9232	13.325
4.9186	13.3977
4.9139	13.4828
4.9092	13.5764
4.9046	13.6635
4.9	13.7618
4.8953	13.8669
4.8907	13.9693
4.8861	14.0228
4.8815	14.1033
4.8769	14.1989
4.8723	14.2284
4.8678	14.2542
4.8632	14.3148
4.8586	14.3624
4.8541	14.4179
4.8495	14.4619
4.845	14.4799
4.8405	14.5203
4.836	14.5672
4.8315	14.6033
4.827	14.6225
4.8225	14.6373
4.818	14.6731
4.8135	14.6645
4.809	14.6529
4.8046	14.6645
4.8001	14.6581
4.7957	14.6545
4.7913	14.6435
4.7868	14.6461
4.7824	14.6275
4.778	14.544
4.7736	14.453
4.7692	14.3252
4.7648	14.1095
4.7605	13.8652
4.7561	13.6343
4.7517	13.4137
4.7474	13.1714
4.7431	12.8421
4.7387	12.4406
4.7344	12.0241
4.7301	11.5899
4.7258	11.0516
4.7215	10.3878
4.7172	9.6583
4.7129	8.9351
4.7086	8.2671
4.7043	7.6689
4.7	7.1825
4.6958	6.8104
4.6915	6.5393
4.6873	6.3496
4.6831	6.1972
4.6788	6.0857
4.6746	6.0317
4.6704	6.0343
4.6662	6.0482
4.662	6.124
4.6578	6.2738
4.6536	6.4616
4.6495	6.7387
4.6453	7.0849
4.6411	7.5002
4.637	7.9969
4.6328	8.4683
4.6287	8.8927
4.6246	9.2841
4.6205	9.6626
4.6163	10.0347
4.6122	10.3323
4.6081	10.5428
4.604	10.7163
4.6	10.8716
4.5959	11.0288
4.5918	11.1752
4.5877	11.2678
4.5837	11.3331
4.5796	11.3995
4.5756	11.4667
4.5716	11.5255
4.5675	11.5628
4.5635	11.6015
4.5595	11.6305
4.5555	11.6689
4.5515	11.6985
4.5475	11.7071
4.5435	11.7368
4.5395	11.7781
4.5356	11.8018
4.5316	11.8035
4.5276	11.8327
4.5237	11.8832
4.5197	11.8935
4.5158	11.9129
4.5119	11.969
4.508	12.0272
4.504	12.0983
4.5001	12.214
4.4962	12.3378
4.4923	12.5196
4.4884	12.7438
4.4846	12.9752
4.4807	13.2151
4.4768	13.4817
4.473	13.7824
4.4691	14.0434
4.4652	14.2724
4.4614	14.5014
4.4576	14.7148
4.4537	14.9133
4.4499	15.1333
4.4461	15.368
4.4423	15.6206
4.4385	15.88
4.4347	16.1317
4.4309	16.3599
4.4271	16.5739
4.4233	16.7767
4.4196	16.9349
4.4158	17.0839
4.412	17.2179
4.4083	17.3514
4.4045	17.4588
4.4008	17.5157
4.3971	17.5715
4.3934	17.6586
4.3896	17.7481
4.3859	17.8507
4.3822	17.939
4.3785	17.9519
4.3748	17.9368
4.3711	17.8928
4.3674	17.7957
4.3638	17.6469
4.3601	17.4337
4.3564	17.2007
4.3528	16.9774
4.3491	16.7724
4.3455	16.6841
4.3418	16.6619
4.3382	16.6245
4.3346	16.5513
4.331	16.5178
4.3273	16.5264
4.3237	16.5341
4.3201	16.4917
4.3165	16.4104
4.3129	16.3365
4.3094	16.2949
4.3058	16.3259
4.3022	16.3798
4.2986	16.3875
4.2951	16.2903
4.2915	16.0401
4.288	15.607
4.2844	15.1289
4.2809	14.7775
4.2774	14.4691
4.2738	14.221
4.2703	14.1013
4.2668	14.1494
4.2633	14.3784
4.2598	14.7172
4.2563	15.0409
4.2528	15.3039
4.2493	15.49
4.2458	15.6522
4.2424	15.7725
4.2389	15.8293
4.2354	15.8882
4.232	15.9137
4.2285	15.8787
4.2251	15.8692
4.2216	15.8929
4.2182	15.9199
4.2148	15.9297
4.2113	15.9149
4.2079	15.8879
4.2045	15.841
4.2011	15.7838
4.1977	15.6924
4.1943	15.5806
4.1909	15.4804
4.1875	15.3678
4.1841	15.272
4.1808	15.1883
4.1774	15.0347
4.174	14.8821
4.1707	14.7586
4.1673	14.6071
4.164	14.4572
4.1606	14.3059
4.1573	14.1423
4.154	13.953
4.1506	13.7614
4.1473	13.5552
4.144	13.3324
4.1407	13.0931
4.1374	12.8265
4.1341	12.5722
4.1308	12.3452
4.1275	12.1174
4.1242	11.8657
4.1209	11.6002
4.1177	11.365
4.1144	11.1147
4.1111	10.8723
4.1079	10.6316
4.1046	10.3904
4.1014	10.2039
4.0981	10.006
4.0949	9.7622
4.0917	9.5466
4.0884	9.3255
4.0852	9.0856
4.082	8.842
4.0788	8.613
4.0756	8.3566
4.0724	8.0661
4.0692	7.8237
4.066	7.6055
4.0628	7.3976
4.0596	7.1719
4.0565	6.9115
4.0533	6.6449
4.0501	6.363
4.047	6.0345
4.0438	5.6946
4.0406	5.3816
4.0375	5.1048
4.0344	4.8557
4.0312	4.6454
4.0281	4.4918
4.025	4.3189
4.0218	4.166
4.0187	4.0495
4.0156	3.9069
4.0125	3.7482
4.0094	3.63
4.0063	3.5113
4.0032	3.3644
4.0001	3.2262
3.997	3.112
3.994	2.9946
3.9909	2.9027
3.9878	2.824
3.9847	2.7548
3.9817	2.6871
3.9786	2.6639
3.9756	2.6598
3.9725	2.6653
3.9695	2.6598
3.9665	2.693
3.9634	2.7687
3.9604	2.79
3.9574	2.806
3.9544	2.894
3.9513	3.0051
3.9483	3.0917
3.9453	3.1785
3.9423	3.3039
3.9393	3.4374
3.9363	3.5266
3.9333	3.599
3.9304	3.6654
3.9274	3.6918
3.9244	3.712
3.9214	3.7527
3.9185	3.7932
3.9155	3.8262
3.9126	3.8422
3.9096	3.8533
3.9067	3.874
3.9037	3.8956
3.9008	3.9444
3.8979	3.9906
3.8949	4.0035
3.892	4.0018
3.8891	4.0272
3.8862	4.0365
3.8833	4.0334
3.8804	4.0399
3.8775	4.0624
3.8746	4.0478
3.8717	4.0401
3.8688	4.0693
3.8659	4.0752
3.863	4.0729
3.8601	4.1001
3.8573	4.1439
3.8544	4.176
3.8515	4.1927
3.8487	4.215
3.8458	4.2389
3.843	4.2628
3.8401	4.3097
3.8373	4.376
3.8344	4.4772
3.8316	4.6215
3.8288	4.7584
3.8259	4.8577
3.8231	5.0004
3.8203	5.1996
3.8175	5.3709
3.8147	5.5467
3.8119	5.7891
3.8091	6.0515
3.8063	6.3607
3.8035	6.7475
3.8007	7.2021
3.7979	7.7595
3.7951	8.413
3.7924	9.1183
3.7896	9.8442
3.7868	10.529
3.7841	11.1015
3.7813	11.5494
3.7785	11.9552
3.7758	12.3066
3.773	12.6208
3.7703	12.9072
3.7676	13.1689
3.7648	13.3759
3.7621	13.5738
3.7594	13.7774
3.7566	13.919
3.7539	13.9956
3.7512	14.1191
3.7485	14.2382
3.7458	14.348
3.7431	14.477
3.7404	14.6828
3.7377	14.9022
3.735	15.0687
3.7323	15.2115
3.7296	15.3507
3.7269	15.4744
3.7242	15.562
3.7216	15.6596
3.7189	15.7333
3.7162	15.7934
3.7136	15.8249
3.7109	15.8678
3.7083	15.928
3.7056	15.9687
3.703	15.969
3.7003	16.0025
3.6977	16.0565
3.695	16.045
3.6924	16.0314
3.6898	16.0537
3.6872	16.0673
3.6845	16.0419
3.6819	16.0248
3.6793	16.0077
3.6767	15.9755
3.6741	15.9154
3.6715	15.8551
3.6689	15.8178
3.6663	15.7678
3.6637	15.7275
3.6611	15.6709
3.6585	15.5768
3.656	15.4619
3.6534	15.4196
3.6508	15.3972
3.6482	15.2871
3.6457	15.1814
3.6431	15.1402
3.6406	15.0418
3.638	14.9249
3.6355	14.8536
3.6329	14.7313
3.6304	14.6127
3.6278	14.515
3.6253	14.4109
3.6227	14.3141
3.6202	14.1858
3.6177	14.0618
3.6152	13.9599
3.6127	13.8125
3.6101	13.6391
3.6076	13.4876
3.6051	13.3333
3.6026	13.1299
3.6001	12.9148
3.5976	12.6929
3.5951	12.4389
3.5926	12.1634
3.5901	11.8882
3.5876	11.6013
3.5852	11.2893
3.5827	10.9178
3.5802	10.4995
3.5777	10.1199
3.5753	9.7983
3.5728	9.5528
3.5704	9.4337
3.5679	9.4193
3.5654	9.4433
3.563	9.4365
3.5605	9.3784
3.5581	9.2483
3.5557	9.1165
3.5532	8.9498
3.5508	8.743
3.5484	8.5197
3.5459	8.2731
3.5435	8.0294
3.5411	7.7517
3.5387	7.4345
3.5363	7.1447
3.5338	6.8559
3.5314	6.531
3.529	6.1819
3.5266	5.8936
3.5242	5.6211
3.5218	5.3283
3.5195	5.0481
3.5171	4.866
3.5147	4.7452
3.5123	4.6167
3.5099	4.5078
3.5075	4.4253
3.5052	4.37
3.5028	4.3181
3.5004	4.2648
3.4981	4.1901
3.4957	4.136
3.4934	4.0932
3.491	4.0262
3.4887	3.9686
3.4863	3.9248
3.484	3.8901
3.4816	3.8518
3.4793	3.7894
3.477	3.7504
3.4746	3.7688
3.4723	3.8662
3.47	3.9869
3.4677	4.1081
3.4653	4.2784
3.463	4.4183
3.4607	4.4842
3.4584	4.5499
3.4561	4.6758
3.4538	4.74
3.4515	4.7033
3.4492	4.7332
3.4469	4.7705
3.4446	4.7636
3.4423	4.7662
3.44	4.7842
3.4378	4.8055
3.4355	4.8047
3.4332	4.7768
3.4309	4.7954
3.4287	4.8253
3.4264	4.8301
3.4241	4.8084
3.4219	4.8538
3.4196	4.8354
3.4174	4.771
3.4151	4.7938
3.4129	4.8148
3.4106	4.8007
3.4084	4.8256
3.4061	4.8193
3.4039	4.7627
3.4017	4.7408
3.3994	4.7868
3.3972	4.7411
3.395	4.7282
3.3928	4.7672
3.3906	4.7172
3.3883	4.6772
3.3861	4.6746
3.3839	4.6722
3.3817	4.6789
3.3795	4.6933
3.3773	4.6437
3.3751	4.6273
3.3729	4.6569
3.3707	4.6507
3.3685	4.6215
3.3663	4.5622
3.3641	4.543
3.362	4.5509
3.3598	4.483
3.3576	4.3987
3.3554	4.3159
3.3533	4.3078
3.3511	4.3026
3.3489	4.3066
3.3468	4.3753
3.3446	4.5116
3.3425	4.7634
3.3403	5.0584
3.3382	5.423
3.336	5.791
3.3339	6.1585
3.3317	6.5063
3.3296	6.7808
3.3274	6.989
3.3253	7.2011
3.3232	7.4342
3.321	7.5823
3.3189	7.6818
3.3168	7.808
3.3147	7.9656
3.3126	8.0878
3.3104	8.1438
3.3083	8.2291
3.3062	8.3176
3.3041	8.3546
3.302	8.4218
3.2999	8.4788
3.2978	8.5126
3.2957	8.563
3.2936	8.63
3.2915	8.7241
3.2894	8.7661
3.2874	8.7494
3.2853	8.7958
3.2832	8.842
3.2811	8.8597
3.279	8.9126
3.277	8.9221
3.2749	8.9164
3.2728	8.9272
3.2708	8.9747
3.2687	9.0192
3.2666	9.0087
3.2646	9.0081
3.2625	9.0305
3.2605	9.0224
3.2584	9.0099
3.2564	9.0325
3.2543	9.0363
3.2523	9.0624
3.2503	9.0468
3.2482	8.9865
3.2462	8.9923
3.2442	9.0265
3.2421	8.9915
3.2401	8.9243
3.2381	8.909
3.2361	8.8992
3.234	8.946
3.232	8.9482
3.23	8.8959
3.228	8.8987
3.226	8.8676
3.224	8.827
3.222	8.7829
3.22	8.7297
3.218	8.7594
3.216	8.7805
3.214	8.749
3.212	8.7443
3.21	8.7126
3.208	8.6659
3.206	8.6207
3.204	8.5767
3.2021	8.5982
3.2001	8.6173
3.1981	8.5685
3.1961	8.4993
3.1942	8.4754
3.1922	8.4587
3.1902	8.4436
3.1883	8.4269
3.1863	8.4157
3.1844	8.3934
3.1824	8.3627
3.1805	8.3489
