Name: Antigorite (Mg, Fe+2)3 Si2O5(OH)4 
Type:  Mineral  
Class:  Silicates
Subclass:  Phyllosilicates  (Sheet silicates) (Serpentine/Kaolin Group) 
Particle Size:  Fine (less than 2 Micrometers)
Sample No.:  antigorite.1
Owner:  JHU.
Wavelength Range:  IR
Origin:  Sample from Kalsertal, Tyrol, Austria, via the Smithsonian 
(sample no. NMNH B17958, borrowed from Jim Crowley, USGS).  
Description: The sample was a large green single crystal.  It appeared 
to be mostly pure antigorite under the microscope, but some (<3%) 
alteration or impurity was present, possibly chrysotile.



Measurement:  Transmission
First Column:  X
Second Column:  Y  
X Units:  Wavelength (micrometers)
Y Units:  Transmittance (percent)
First X Value:  25.0442
Last X Value:  4.4055
Number of X Values:  2287
Additional Information: antigo1a.txt

25.04420302	59.4608
24.9237955	58.7811
24.80454022	58.8163
24.68642074	58.9256
24.5694209	59.1092
24.45358465	59.3436
24.3387763	59.1795
24.22504094	59.2889
24.11236361	59.4100
24.00072962	59.4881
23.89012454	59.2030
23.78053421	58.6639
23.67194472	58.0428
23.56434244	56.6522
23.45771395	54.7381
23.35204611	52.4452
23.24732598	50.5096
23.14354087	48.1483
23.04067832	45.6815
22.93872607	43.4237
22.83767211	41.3456
22.7375046	39.8358
22.63821194	38.6601
22.53978272	37.3690
22.44220571	36.3300
22.3454699	35.5546
22.24956446	35.0468
22.15447875	34.9413
22.06020229	35.0644
21.96677306	35.4550
21.87408402	35.8690
21.7821739	36.6054
21.69103293	37.4999
21.60065148	38.6718
21.5110201	39.7382
21.42212949	40.9159
21.33397051	42.2147
21.24653416	43.3612
21.15981159	44.5018
21.0737941	45.8846
20.98847313	47.2518
20.90384024	48.5800
20.81988716	49.5760
20.73660571	50.4706
20.65398787	51.5565
20.57202575	52.5838
20.49071156	53.6092
20.41003766	54.5858
20.3299965	55.5018
20.25058069	56.1034
20.1717829	56.5487
20.09359597	57.2186
20.01601281	57.6014
19.93906621	57.9862
19.8626695	58.4256
19.78685599	58.8905
19.71161901	59.2899
19.63695203	59.8788
19.56284859	60.2967
19.48930232	60.7323
19.41630698	61.2547
19.34385639	61.7508
19.27194448	62.0194
19.20056526	62.1952
19.12971284	62.6522
19.05938141	62.8133
18.98956523	62.8368
18.92025868	62.8836
18.85145618	62.9100
18.78315226	62.7616
18.71534153	62.8602
18.64801865	62.7264
18.58117838	62.4510
18.51481556	62.1327
18.44892507	62.0077
18.38350191	61.8905
18.31854111	61.4774
18.25407111	61.0672
18.19002023	60.6815
18.12641726	60.3182
18.06325753	59.7987
18.00053642	59.4041
17.93824937	58.9120
17.8763919	58.5633
17.81495958	58.3280
17.75394803	58.2420
17.69335296	58.3241
17.63317011	58.7508
17.57339529	59.3719
17.51402436	60.1219
17.45505324	61.0799
17.39647791	61.9569
17.3382944	62.8162
17.28049878	63.4061
17.2230872	64.0565
17.16605584	64.5936
17.10940093	65.1131
17.05311876	65.4119
16.99720566	65.6883
16.94165801	65.8524
16.88647225	65.8944
16.83167317	65.8221
16.77720046	65.6414
16.72307919	65.3377
16.66930597	65.0291
16.61587747	64.4744
16.56279037	63.7703
16.51004141	63.0662
16.45762737	62.1844
16.40554507	61.4657
16.35379138	60.7313
16.30236319	60.0584
16.25125744	59.3260
16.20047111	58.7821
16.15000121	58.2791
16.0998448	57.9500
16.04999896	57.7508
16.00048641	57.7284
15.95125297	57.7420
15.90232158	57.8924
15.85368947	58.0702
15.80535391	58.1249
15.75731218	58.2264
15.70956162	58.2040
15.6620996	58.3329
15.61492349	58.4930
15.56803074	58.8153
15.52141878	59.1639
15.47508511	59.6698
15.42902725	60.2625
15.38324273	61.0057
15.33772913	61.7166
15.29248405	62.4412
15.24750513	63.3377
15.20279002	64.0750
15.1583364	64.9500
15.114142	65.6151
15.07020455	66.4539
15.02652181	67.2069
14.98309158	68.0467
14.93991168	68.8807
14.89700213	69.7274
14.85431629	70.3983
14.81187438	71.0604
14.76967431	71.7010
14.72771402	72.2557
14.68599147	72.8328
14.64450465	73.2889
14.60325156	73.9207
14.56223023	74.4734
14.52143873	75.0750
14.48087511	75.6004
14.44053748	76.1170
14.40042395	76.5691
14.36053266	76.9363
14.32086177	77.3367
14.28140946	77.5975
14.24217393	77.9510
14.20315338	78.2820
14.16434607	78.6111
14.12575025	78.6980
14.0873642	78.8807
14.0491862	79.0535
14.01121458	79.3465
13.97344765	79.5887
13.93590321	79.7889
13.89854065	80.0804
13.8613779	80.3304
13.82441336	80.4690
13.78764544	80.6697
13.75107258	80.8943
13.71469324	81.0061
13.67850587	81.1565
13.64250897	81.3787
13.60670103	81.4705
13.57108057	81.6521
13.53564612	81.7718
13.50039624	81.9124
13.46532947	82.1306
13.4304444	82.2810
13.39573962	82.4593
13.36121373	82.5745
13.32686536	82.6097
13.29269314	82.7014
13.25869572	82.8245
13.22487175	82.9490
13.19121992	83.0662
13.15773892	83.0960
13.12442745	83.1097
13.09130135	83.1853
13.05832501	83.2517
13.02551438	83.3826
12.99286821	83.3225
12.96038529	83.1936
12.92806437	83.2171
12.89590426	83.2820
12.86390376	83.2347
12.83206168	83.2815
12.80037684	83.3846
12.7688481	83.5935
12.73747429	83.7249
12.70625427	83.8577
12.67518693	84.0530
12.64427113	84.1736
12.61350579	84.3513
12.58290562	84.3299
12.55243781	84.3758
12.52211719	84.4353
12.4919427	84.5706
12.46191328	84.4866
12.43202789	84.5095
12.40228549	84.5740
12.37268507	84.5193
12.34322561	84.6228
12.31390609	84.4959
12.28472554	84.5237
12.25568296	84.5135
12.22677738	84.4768
12.19800782	84.3758
12.16937334	84.3069
12.14087298	84.2527
12.1125058	84.1468
12.08427087	83.9104
12.05616727	83.7928
12.02819409	83.6077
12.00035041	83.1975
11.97263534	82.9431
11.945048	82.8074
11.9175875	82.7625
11.8902671	82.5139
11.86305761	82.3660
11.83597236	82.1858
11.80901051	82.0330
11.78217122	81.8260
11.75545365	81.7224
11.72885698	81.4729
11.70238038	81.1717
11.67602305	80.9226
11.64978419	80.7615
11.62366299	80.6062
11.59765866	80.4021
11.57177043	80.4026
11.54599752	80.2991
11.52033916	80.2693
11.49479458	80.1370
11.46936304	80.0413
11.44404378	79.8753
11.41883606	79.7850
11.39373914	79.7342
11.3687523	79.6990
11.34387482	79.7405
11.31910597	79.6717
11.29444505	79.5628
11.26990406	79.3045
11.24545684	79.2000
11.22111545	78.9168
11.19687921	78.5935
11.17274743	78.1961
11.14871946	77.8689
11.12479461	77.4104
11.10097222	76.8904
11.07725165	76.3987
11.05363222	75.7640
11.03011331	75.1180
11.00669427	74.4241
10.98337447	73.8206
10.96015327	73.1248
10.93703005	72.5316
10.9140042	71.9280
10.89107509	71.4129
10.86824213	70.8245
10.8455047	70.0770
10.82286221	69.3421
10.80031407	68.6014
10.77785969	67.8519
10.75549848	66.9530
10.73322986	66.0213
10.71106474	64.9163
10.68897956	63.6922
10.66698525	62.3050
10.64508128	61.0018
10.62326708	59.4657
10.6015421	57.6605
10.5799058	55.9398
10.55835763	54.0780
10.53689705	52.2811
10.51552354	50.5448
10.49423657	48.7601
10.4730356	47.0214
10.45192012	45.4125
10.43088962	43.8593
10.40994358	42.3866
10.38908149	41.0180
10.36830285	39.7040
10.34760717	38.5233
10.32699394	37.3788
10.30646267	36.2948
10.28601287	35.2519
10.26564407	34.2367
10.24535578	33.2109
10.22514752	32.1737
10.20502924	31.2157
10.1849796	30.3949
10.16500858	29.7792
10.14511574	29.4106
10.12530059	29.2753
10.10556271	29.3544
10.08590162	29.5829
10.0663169	29.8705
10.04680808	30.2074
10.02737473	30.5966
10.00801642	31.0663
9.98873271	31.5195
9.969523168	32.0331
9.950387369	32.6513
9.931324888	33.3202
9.912335307	34.0522
9.893427994	34.8608
9.874582922	35.7035
9.855809507	36.5185
9.83710734	37.3036
9.818476015	38.1371
9.799915133	38.9423
9.781424293	39.7650
9.7630031	40.5766
9.744651161	41.4003
9.726368087	42.2221
9.70815349	43.0717
9.690006986	43.9227
9.671928196	44.7543
9.653916739	45.5487
9.635972241	46.2474
9.618094328	46.8475
9.600282632	47.3304
9.582536785	47.7426
9.564856422	48.0179
9.547241181	48.1952
9.529690704	48.2811
9.512204634	48.2445
9.494782617	48.1132
9.477424301	47.8715
9.460138288	47.6268
9.4429063	47.3221
9.425736975	47.0101
9.408629972	46.7675
9.391584952	46.6620
9.374601579	46.6449
9.35767952	46.7543
9.340818443	47.0106
9.324018018	47.3300
9.307277919	47.8143
9.290597822	48.4120
9.273977405	49.1039
9.257416348	49.8632
9.240914333	50.7411
9.224471046	51.7782
9.208086173	52.8924
9.191759404	54.2577
9.17549043	55.8377
9.159278945	57.5536
9.143124645	59.3895
9.127027227	61.3455
9.110986392	63.1756
9.095001842	64.9749
9.079073281	66.6859
9.06320863	68.2088
9.04739114	69.5545
9.031628764	70.7088
9.015921215	71.6878
9.000268208	72.4944
8.984669459	73.2732
8.969124685	73.9188
8.953633608	74.5691
8.93819595	75.1346
8.922811435	75.7464
8.907479789	76.3738
8.89220074	76.8699
8.876974017	77.3909
8.861799353	77.8455
8.846676481	78.3636
8.831605135	78.9339
8.816585054	79.4690
8.801615977	79.9427
8.786697643	80.4490
8.771829795	80.8875
8.757012178	81.2903
8.742244536	81.7288
8.727526619	82.2034
8.712858175	82.6111
8.69824652	82.9431
8.683676252	83.3699
8.669154714	83.7679
8.654681663	84.1824
8.640256858	84.5003
8.625880055	84.8474
8.611551018	85.1321
8.597269507	85.3606
8.583035287	85.6033
8.568848124	85.8699
8.554707784	86.0598
8.540614036	86.2542
8.52656665	86.4632
8.512565398	86.6487
8.498610052	86.8997
8.484700388	87.0828
8.470836182	87.3050
8.45701721	87.5232
8.443243252	87.7561
8.429514089	87.9317
8.415829502	88.0916
8.402189274	88.2549
8.388593191	88.4121
8.375041038	88.5564
8.361539594	88.6279
8.348074642	88.7442
8.334652987	88.8496
8.32127442	88.9756
8.307938734	89.1035
8.294645723	89.2888
8.281395183	89.4365
8.268186911	89.6297
8.255020704	89.8201
8.241896361	90.0342
8.228813685	90.2634
8.215772476	90.3982
8.202772537	90.5818
8.189813674	90.7412
8.176895691	90.9470
8.164018395	91.0457
8.151188239	91.1582
8.138391724	91.2722
8.125635323	91.3975
8.11291885	91.4219
8.100242116	91.4949
8.087604937	91.6289
8.075007126	91.6829
8.062448501	91.7488
8.049928879	91.7822
8.037448078	91.8821
8.025005918	91.9197
8.012602221	91.9727
8.000236807	92.0274
7.9879095	92.1170
7.975620124	92.2224
7.963368505	92.3447
7.951154468	92.4929
7.938977841	92.5928
7.926838452	92.6619
7.914736131	92.6475
7.902670708	92.6465
7.890642014	92.5899
7.878649883	92.5779
7.866694148	92.6062
7.854780812	92.6492
7.842897355	92.6787
7.831049799	92.7068
7.819237984	92.7488
7.807461747	92.7800
7.795720929	92.8164
7.784015369	92.8760
7.772344909	92.8965
7.760709391	92.9031
7.749108659	92.9385
7.737542556	92.9346
7.726010929	92.9402
7.714513623	92.9854
7.703050485	93.0081
7.691621363	92.9968
7.680226106	93.0098
7.668864563	93.0527
7.657536586	93.0847
7.646242025	93.0789
7.634980733	93.0759
7.623752563	93.1228
7.61255737	93.1670
7.601395008	93.1797
7.590265333	93.2190
7.579173946	93.2234
7.568109199	93.2051
7.557076711	93.2380
7.546076342	93.2566
7.535107952	93.2625
7.524171401	93.2432
7.51326655	93.2412
7.502393263	93.2148
7.491551403	93.2178
7.480740833	93.2263
7.469961418	93.2156
7.459213023	93.1807
7.448495516	93.1465
7.437808762	93.1248
7.42715263	93.1289
7.416526989	93.1541
7.405931707	93.1182
7.395366655	93.1084
7.384831703	93.0833
7.374326724	93.0940
7.363851589	93.0657
7.353406171	93.0574
7.342990345	93.0459
7.332603984	93.0374
7.322252325	93.0156
7.311924506	92.9558
7.30162578	92.9443
7.291356025	92.9004
7.281115117	92.8733
7.270902937	92.8125
7.260719363	92.7725
7.250564275	92.7002
7.240437554	92.6150
7.230339081	92.4939
7.220268738	92.3955
7.210226408	92.4463
7.200211974	92.4890
7.19022532	92.5342
7.18026633	92.5322
7.17033489	92.5593
7.160436013	92.5549
7.150559317	92.5359
7.140709829	92.4893
7.130887439	92.4138
7.121092034	92.3347
7.111323503	92.1956
7.101581735	92.0420
7.091866622	91.8792
7.082178053	91.7693
7.07251592	91.6406
7.062880115	91.5325
7.053270531	91.4922
7.04368706	91.4658
7.034129597	91.4248
7.024598035	91.4050
7.01509227	91.4226
7.005612196	91.4258
6.99615771	91.5020
6.986728709	91.5349
6.977325089	91.5674
6.967946748	91.6387
6.958593585	91.7083
6.949265497	91.7100
6.939962385	91.7117
6.930688952	91.7676
6.921435478	91.7673
6.912206681	91.8181
6.903002461	91.8369
6.893822721	91.8567
6.884667364	91.8728
6.875536292	91.8699
6.866429409	91.9299
6.857346618	91.9219
6.848287825	91.8699
6.839252935	91.8225
6.830241852	91.8818
6.821254483	91.8779
6.812290735	91.9092
6.803350514	91.9392
6.794433728	92.0252
6.785540285	92.0628
6.776670093	92.0684
6.767823062	92.0596
6.7589991	92.0466
6.750198118	92.0811
6.741420026	92.0410
6.732664735	92.0693
6.723932156	92.1072
6.715226709	92.2168
6.706539278	92.2061
6.697874296	92.1892
6.689231675	92.1983
6.680611329	92.1853
6.672013173	92.1729
6.663437121	92.1296
6.654883087	92.1047
6.646350987	92.1191
6.637840737	92.2097
6.629352253	92.1902
6.620885451	92.1433
6.612440248	92.0947
6.604016563	92.0574
6.595614312	92.0615
6.587233415	92.0645
6.578873789	92.1006
6.570535354	92.1296
6.56221803	92.0769
6.553921736	92.0554
6.545646392	92.0945
6.537391921	92.0371
6.529158241	92.0322
6.520945276	92.0938
6.512757189	92.1443
6.504585407	92.2615
6.496434107	92.3906
6.488303211	92.4121
6.480192643	92.3809
6.472102327	92.4150
6.464032186	92.4024
6.455982145	92.4753
6.44795213	92.5173
6.439942066	92.5664
6.431951879	92.6008
6.423981494	92.6638
6.416030838	92.7803
6.408099838	92.7859
6.400188422	92.6924
6.392296516	92.6824
6.384424048	92.7109
6.376570948	92.7195
6.368737143	92.7559
6.360922563	92.7654
6.353127136	92.7800
6.345350793	92.8611
6.337593464	92.8230
6.329855078	92.7610
6.322139564	92.7656
6.314438848	92.7634
6.30675687	92.7625
6.29909356	92.6865
6.291448851	92.6699
6.283822676	92.6377
6.276214965	92.6067
6.268625654	92.5205
6.261054675	92.4675
6.253501961	92.4404
6.245967447	92.3845
6.238451067	92.3059
6.230952756	92.1924
6.223472449	92.0984
6.21601008	91.9453
6.208565585	91.8069
6.201142747	91.6416
6.1937338	91.5252
6.186342535	91.4041
6.178968891	91.2334
6.171612803	91.0037
6.164274209	90.8298
6.156953047	90.7119
6.149649255	90.5508
6.14236277	90.4697
6.135093533	90.4705
6.12784148	90.5369
6.120606552	90.5237
6.113388688	90.5271
6.106187828	90.4736
6.099003911	90.4180
6.091836878	90.4736
6.084686669	90.5833
6.077553226	90.7813
6.070436489	90.9414
6.063336399	91.0945
6.056252899	91.3338
6.049185931	91.6934
6.042135436	91.8281
6.035101357	91.9568
6.02808727	92.1524
6.021085843	92.5176
6.01410066	92.9685
6.007131667	93.2913
6.000178805	93.5945
5.99324202	93.8513
5.986321256	94.0283
5.979416457	94.0779
5.972527568	94.1189
5.965654534	94.1260
5.9587973	94.0459
5.951955813	93.9883
5.945130017	93.9736
5.938319859	94.0566
5.931525286	94.0457
5.924746243	93.9363
5.917982678	93.9014
5.911234538	93.9199
5.904501769	93.9707
5.89778432	94.0938
5.891082139	94.1277
5.884395172	94.2214
5.87772337	94.3291
5.871066679	94.2937
5.864428488	94.3132
5.85780186	94.3337
5.851190191	94.3809
5.84459343	94.4031
5.838011527	94.4844
5.831444431	94.5691
5.824892094	94.6936
5.818354465	94.7471
5.811831494	94.7549
5.805323133	94.7869
5.798829332	94.8291
5.792350043	94.8694
5.785885217	94.8916
5.779434806	94.9421
5.772998761	94.9998
5.766577035	95.0837
5.760169579	95.0508
5.753776347	95.0078
5.747397291	95.0593
5.741032364	95.0645
5.734681519	95.0439
5.728344709	95.0439
5.722021888	95.0847
5.715713009	95.1121
5.709421287	95.1521
5.703140149	95.1404
5.696872816	95.1279
5.690619242	95.1355
5.684379382	95.1223
5.678153192	95.1553
5.671940626	95.1716
5.66574164	95.1804
5.659556189	95.1462
5.653384229	95.1433
5.647225716	95.1455
5.641080605	95.1777
5.634948854	95.1191
5.628830419	95.0759
5.622725256	95.0945
5.616633323	95.0925
5.610557723	95.0867
5.604492113	95.0750
5.598439603	95.0759
5.592400152	95.0723
5.586373717	95.0598
5.580360257	95.0857
5.574359729	95.1057
5.568372092	95.0527
5.562397304	95.0447
5.556435324	95.0720
5.550486112	95.1023
5.544549625	95.0945
5.538625823	95.1003
5.532714665	95.1150
5.526816112	95.1375
5.520930122	95.1660
5.515056656	95.1941
5.509195674	95.2029
5.503347136	95.2175
5.497511002	95.2227
5.491687233	95.2419
5.48587579	95.2715
5.480076633	95.3076
5.474289725	95.3181
5.468518015	95.3416
5.462755479	95.3691
5.457005076	95.3701
5.451266765	95.3594
5.445540511	95.3701
5.439826274	95.3455
5.434124016	95.3271
5.428433701	95.3467
5.422755291	95.3679
5.417088748	95.3535
5.411434035	95.2900
5.405791116	95.2693
5.400159953	95.2268
5.394540509	95.1902
5.388932749	95.1719
5.383336635	95.1360
5.377752132	95.1316
5.372179203	95.1121
5.366617813	95.1013
5.361067925	95.0930
5.355529504	95.1055
5.350002515	95.1104
5.344486921	95.1326
5.338982689	95.1289
5.333492627	95.1377
5.328011006	95.1580
5.32254064	95.1826
5.317081497	95.1816
5.31163354	95.1912
5.306196736	95.1843
5.30077105	95.1895
5.295356449	95.2175
5.289952898	95.2527
5.284560364	95.2588
5.279178813	95.2644
5.273808212	95.2888
5.268448526	95.3223
5.263099724	95.3425
5.257761771	95.3376
5.252434635	95.3748
5.247118283	95.4167
5.241812682	95.4502
5.236517799	95.4734
5.231233603	95.4941
5.225960061	95.5505
5.220697141	95.5837
5.21544481	95.6016
5.210203036	95.6133
5.204974498	95.6006
5.19975374	95.6101
5.194543444	95.6270
5.189343579	95.6296
5.184154115	95.6318
5.178975019	95.6433
5.173806261	95.6377
5.168647809	95.6257
5.163499634	95.6357
5.158361704	95.6580
5.153233989	95.6565
5.148116459	95.6582
5.143009082	95.6277
5.137911829	95.6445
5.13282467	95.6172
5.127747575	95.6201
5.122680514	95.6443
5.117623458	95.6355
5.112576376	95.6072
5.107539239	95.6306
5.102512018	95.6365
5.097494683	95.6316
5.092487206	95.6218
5.087489558	95.6035
5.082504292	95.6104
5.077526209	95.5879
5.072557868	95.5857
5.06759924	95.5547
5.062650297	95.5645
5.057711011	95.5681
5.052781354	95.5652
5.047861297	95.5496
5.042950812	95.5713
5.038049872	95.5801
5.033158448	95.5896
5.028276513	95.6042
5.023404039	95.6130
5.018541	95.6238
5.013687367	95.5945
5.008843113	95.6179
5.004010715	95.6169
4.999185133	95.6257
4.994368849	95.6604
4.989561837	95.6721
4.984764069	95.6877
4.979975518	95.6794
4.97519616	95.7034
4.970425966	95.7205
4.96566491	95.7424
4.960912967	95.7405
4.95617011	95.7463
4.951436313	95.7493
4.94671155	95.7625
4.941995795	95.7522
4.937289023	95.7678
4.932591209	95.7507
4.927902325	95.7698
4.923222347	95.7878
4.918551251	95.7878
4.913889009	95.8088
4.909235598	95.8206
4.904590991	95.8210
4.899955165	95.8411
4.895328095	95.8591
4.890712146	95.8879
4.886102507	95.8904
4.88150155	95.8967
4.876909249	95.9080
4.87232558	95.9275
4.86775052	95.9529
4.863184043	95.9641
4.858626126	95.9924
4.854076745	95.9934
4.849535875	96.0154
4.845003493	96.0281
4.840479575	96.0305
4.835964098	96.0417
4.831457037	96.0398
4.826958369	96.0437
4.822468072	96.0413
4.81798612	96.0486
4.813512492	96.0417
4.809047164	96.0652
4.804590113	96.0632
4.800141316	96.0388
4.79570075	96.0579
4.791268392	96.0842
4.78684422	96.0999
4.782430498	96.1082
4.778022625	96.0730
4.773622869	96.0959
4.769231209	96.1023
4.764847623	96.1086
4.760472086	96.1213
4.756104579	96.1291
4.751745078	96.1497
4.747393562	96.1594
4.743050009	96.1531
4.738714396	96.1614
4.734386703	96.1755
4.730066907	96.1843
4.725754987	96.2009
4.721450921	96.1882
4.717154688	96.1902
4.712866266	96.2156
4.708585635	96.2180
4.704312773	96.2327
4.700047658	96.2463
4.695790271	96.2444
4.691540589	96.2458
4.687298593	96.2620
4.68306426	96.2527
4.67883976	96.2463
4.67462069	96.2405
4.670409221	96.2434
4.666205334	96.2766
4.662009009	96.2800
4.657820224	96.2859
4.65363896	96.3166
4.649465195	96.3162
4.645298911	96.3123
4.641140087	96.3054
4.636988702	96.3108
4.632844738	96.2859
4.628708174	96.2888
4.62457899	96.3083
4.620457167	96.3357
4.616342684	96.3562
