Name: Red Quartzite 
Type:  Rocks
Class:  Metamorphic 
Subclass: Quartzite
Particle Size:  500 - 1500 Micrometer
File Name:   qtzite1.doc
Owner:  JHU
Wavelength Range:  All
Origin:  Sample No. 377, The Hunt and Salisbury Collection at the U.S. 
Geological Survey, Denver, Co.
Description:  A well-compacted sample with medium-grained subangular to 
subrounded quartz grains and small amounts of interstitial calcite cement.  There 
is also a trace amount of secondary quartz cement   Fluid inclusions are common 
in the quartz with some grains showing strain while trace amounts of feldspar are 
present.  The calcite cement itself is stained with ferruginous material and some 
clay.  Modal analyses gave 69% quartz, 25% calcite, 5% clay, 1% feldspar.    
Measurement:  Directional (10 Degree) Hemispherical Reflectance
First Column:  X
Second Column:  Y  
X Units:  Wavelength (micrometers)
Y Units:  Reflectance (percent)
First X Value: 14.0112	
Last X Value:  0.4
Number of X Values:  2844
Additional Information:  None

14.0112	0.4062
13.9734	0.6934
13.9359	0.9367
13.8985	1.1289
13.8614	1.2755
13.8244	1.3793
13.7876	1.4461
13.7511	1.4672
13.7147	1.4333
13.6785	1.3688
13.6425	1.3293
13.6067	1.3554
13.5711	1.4645
13.5356	1.6393
13.5004	1.8454
13.4653	2.0292
13.4304	2.1542
13.3957	2.2074
13.3612	2.1962
13.3269	2.1371
13.2927	2.06
13.2587	1.9937
13.2249	1.9655
13.1912	1.9894
13.1577	2.0762
13.1244	2.2213
13.0913	2.4115
13.0583	2.6331
13.0255	2.8799
12.9929	3.1496
12.9604	3.4468
12.9281	3.7655
12.8959	4.0825
12.8639	4.3497
12.8321	4.5143
12.8004	4.5315
12.7688	4.3866
12.7375	4.1081
12.7063	3.7741
12.6752	3.4768
12.6443	3.2939
12.6135	3.2602
12.5829	3.3628
12.5524	3.5362
12.5221	3.6863
12.4919	3.7207
12.4619	3.5839
12.432	3.2632
12.4023	2.7941
12.3727	2.25
12.3432	1.7255
12.3139	1.304
12.2847	1.0329
12.2557	0.9154
12.2268	0.9226
12.198	1.0039
12.1694	1.1126
12.1409	1.2154
12.1125	1.3073
12.0843	1.3965
12.0562	1.4911
12.0282	1.5901
12.0003	1.6889
11.9726	1.7767
11.945	1.8451
11.9176	1.8887
11.8903	1.9131
11.8631	1.927
11.836	1.9392
11.809	1.9583
11.7822	1.9919
11.7555	2.042
11.7289	2.1069
11.7024	2.1789
11.676	2.2495
11.6498	2.3112
11.6237	2.365
11.5977	2.4172
11.5718	2.4794
11.546	2.5624
11.5203	2.6739
11.4948	2.8115
11.4694	2.9663
11.444	3.1261
11.4188	3.2824
11.3937	3.4221
11.3688	3.5304
11.3439	3.5932
11.3191	3.5968
11.2944	3.5338
11.2699	3.4111
11.2455	3.2499
11.2211	3.0826
11.1969	2.9372
11.1727	2.8295
11.1487	2.7596
11.1248	2.7136
11.101	2.6737
11.0773	2.6306
11.0536	2.5847
11.0301	2.5459
11.0067	2.5222
10.9834	2.5158
10.9602	2.522
10.937	2.5302
10.914	2.529
10.8911	2.5174
10.8682	2.4995
10.8455	2.484
10.8229	2.4756
10.8003	2.4768
10.7779	2.4885
10.7555	2.5055
10.7332	2.5215
10.7111	2.5363
10.689	2.5505
10.667	2.5667
10.6451	2.5871
10.6233	2.6155
10.6015	2.655
10.5799	2.7024
10.5584	2.7517
10.5369	2.7993
10.5155	2.8421
10.4942	2.8809
10.473	2.9182
10.4519	2.9608
10.4309	3.0144
10.4099	3.0783
10.3891	3.1488
10.3683	3.2245
10.3476	3.301
10.327	3.3771
10.3065	3.4527
10.286	3.5298
10.2656	3.6073
10.2454	3.682
10.2251	3.7506
10.205	3.8118
10.185	3.8644
10.165	3.9099
10.1451	3.9497
10.1253	3.9862
10.1056	4.0196
10.0859	4.0506
10.0663	4.0793
10.0468	4.1054
10.0274	4.1291
10.008	4.1502
9.9887	4.1669
9.9695	4.1793
9.9504	4.1909
9.9313	4.2095
9.9123	4.241
9.8934	4.2913
9.8746	4.3617
9.8558	4.4475
9.8371	4.5375
9.8185	4.622
9.7999	4.698
9.7814	4.7701
9.763	4.8466
9.7447	4.9402
9.7264	5.06
9.7082	5.2063
9.69	5.3696
9.6719	5.5391
9.6539	5.7059
9.636	5.8661
9.6181	6.0231
9.6003	6.1872
9.5825	6.3685
9.5649	6.5727
9.5472	6.8016
9.5297	7.0562
9.5122	7.3371
9.4948	7.6498
9.4774	8.0075
9.4601	8.4293
9.4429	8.9332
9.4257	9.5328
9.4086	10.2299
9.3916	11.0109
9.3746	11.8415
9.3577	12.6751
9.3408	13.4582
9.324	14.1403
9.3073	14.6844
9.2906	15.077
9.274	15.3278
9.2574	15.4632
9.2409	15.5199
9.2245	15.535
9.2081	15.5353
9.1918	15.5343
9.1755	15.5359
9.1593	15.5412
9.1431	15.5462
9.127	15.5484
9.111	15.5448
9.095	15.5283
9.0791	15.4814
9.0632	15.3797
9.0474	15.1993
9.0316	14.9278
9.0159	14.5729
9.0003	14.1779
8.9847	13.8113
8.9691	13.552
8.9536	13.4599
8.9382	13.5602
8.9228	13.8322
8.9075	14.2181
8.8922	14.6396
8.877	15.0275
8.8618	15.3345
8.8467	15.5407
8.8316	15.6479
8.8166	15.6726
8.8016	15.6383
8.7867	15.5725
8.7718	15.4955
8.757	15.4184
8.7422	15.3268
8.7275	15.1782
8.7129	14.9103
8.6982	14.4693
8.6837	13.847
8.6692	13.1094
8.6547	12.3947
8.6403	11.8777
8.6259	11.7018
8.6116	11.9258
8.5973	12.5
8.583	13.2893
8.5688	14.1243
8.5547	14.8632
8.5406	15.4321
8.5266	15.8273
8.5126	16.0862
8.4986	16.2607
8.4847	16.3925
8.4708	16.5075
8.457	16.6157
8.4432	16.7216
8.4295	16.832
8.4158	16.954
8.4022	17.093
8.3886	17.2519
8.375	17.4292
8.3615	17.6194
8.3481	17.8151
8.3347	18.0103
8.3213	18.2054
8.3079	18.4036
8.2946	18.6089
8.2814	18.8231
8.2682	19.0413
8.255	19.2521
8.2419	19.437
8.2288	19.5725
8.2158	19.6318
8.2028	19.5876
8.1898	19.4138
8.1769	19.0913
8.164	18.6127
8.1512	17.9871
8.1384	17.2387
8.1256	16.4026
8.1129	15.5192
8.1002	14.6298
8.0876	13.7685
8.075	12.9593
8.0624	12.2153
8.0499	11.5384
8.0374	10.9226
8.025	10.3556
8.0126	9.8222
8.0002	9.3097
7.9879	8.8071
7.9756	8.3079
7.9634	7.8101
7.9512	7.318
7.939	6.8394
7.9268	6.3856
7.9147	5.9661
7.9027	5.5893
7.8906	5.2567
7.8786	4.9656
7.8667	4.7078
7.8548	4.4779
7.8429	4.2701
7.831	4.082
7.8192	3.9145
7.8075	3.7698
7.7957	3.6478
7.784	3.5462
7.7723	3.4587
7.7607	3.3795
7.7491	3.302
7.7375	3.2214
7.726	3.1352
7.7145	3.0436
7.7031	2.9476
7.6916	2.8477
7.6802	2.7443
7.6689	2.6407
7.6575	2.5388
7.6462	2.443
7.635	2.3572
7.6238	2.2835
7.6126	2.2218
7.6014	2.1703
7.5903	2.1272
7.5792	2.0906
7.5681	2.0566
7.5571	2.0236
7.5461	1.9894
7.5351	1.9535
7.5242	1.9162
7.5133	1.8808
7.5024	1.8516
7.4916	1.8301
7.4807	1.8157
7.47	1.8061
7.4592	1.7975
7.4485	1.7884
7.4378	1.7779
7.4272	1.7674
7.4165	1.7585
7.4059	1.7512
7.3954	1.7439
7.3848	1.7349
7.3743	1.722
7.3639	1.7057
7.3534	1.6884
7.343	1.675
7.3326	1.6693
7.3223	1.6743
7.3119	1.6896
7.3016	1.7119
7.2914	1.7336
7.2811	1.7502
7.2709	1.7593
7.2607	1.7648
7.2506	1.7719
7.2404	1.7877
7.2303	1.8153
7.2203	1.8545
7.2102	1.9002
7.2002	1.9469
7.1902	1.992
7.1803	2.0359
7.1703	2.0787
7.1604	2.1248
7.1506	2.178
7.1407	2.2414
7.1309	2.316
7.1211	2.4009
7.1113	2.4923
7.1016	2.584
7.0919	2.6673
7.0822	2.7357
7.0725	2.7859
7.0629	2.8187
7.0533	2.8386
7.0437	2.8515
7.0341	2.8622
7.0246	2.8761
7.0151	2.894
7.0056	2.9134
6.9962	2.9307
6.9867	2.9422
6.9773	2.9453
6.9679	2.9393
6.9586	2.9269
6.9493	2.9141
6.94	2.907
6.9307	2.9091
6.9214	2.9218
6.9122	2.944
6.903	2.9702
6.8938	2.9928
6.8847	3.0084
6.8755	3.0168
6.8664	3.019
6.8573	3.0175
6.8483	3.017
6.8393	3.0202
6.8302	3.0263
6.8213	3.0355
6.8123	3.0481
6.8034	3.0653
6.7944	3.0867
6.7855	3.1103
6.7767	3.1334
6.7678	3.1531
6.759	3.1682
6.7502	3.18
6.7414	3.1912
6.7327	3.2049
6.7239	3.2228
6.7152	3.2439
6.7065	3.2661
6.6979	3.2893
6.6892	3.3149
6.6806	3.3448
6.672	3.3797
6.6634	3.419
6.6549	3.4599
6.6464	3.4996
6.6378	3.5351
6.6294	3.5666
6.6209	3.5941
6.6124	3.6174
6.604	3.636
6.5956	3.6499
6.5872	3.6609
6.5789	3.6724
6.5705	3.6879
6.5622	3.7118
6.5539	3.7439
6.5456	3.7812
6.5374	3.8188
6.5292	3.853
6.5209	3.8822
6.5128	3.9087
6.5046	3.9348
6.4964	3.963
6.4883	3.9925
6.4802	4.0169
6.4721	4.0243
6.464	4.0015
6.456	3.9389
6.448	3.8329
6.4399	3.6876
6.432	3.5152
6.424	3.3297
6.416	3.1436
6.4081	2.9629
6.4002	2.7906
6.3923	2.6273
6.3844	2.4737
6.3766	2.3313
6.3687	2.2024
6.3609	2.0861
6.3531	1.9784
6.3454	1.8755
6.3376	1.7751
6.3299	1.6775
6.3221	1.5858
6.3144	1.5047
6.3068	1.4368
6.2991	1.3827
6.2914	1.3405
6.2838	1.309
6.2762	1.2864
6.2686	1.2715
6.2611	1.2602
6.2535	1.2474
6.246	1.2308
6.2385	1.2089
6.231	1.1838
6.2235	1.1588
6.216	1.1389
6.2086	1.1264
6.2011	1.1197
6.1937	1.1161
6.1863	1.1151
6.179	1.1171
6.1716	1.1207
6.1643	1.1247
6.157	1.1291
6.1496	1.1317
6.1424	1.1331
6.1351	1.1362
6.1278	1.1458
6.1206	1.1631
6.1134	1.1853
6.1062	1.2076
6.099	1.2243
6.0918	1.231
6.0847	1.2286
6.0776	1.2222
6.0704	1.2174
6.0633	1.2185
6.0563	1.2267
6.0492	1.2413
6.0421	1.2604
6.0351	1.2791
6.0281	1.2949
6.0211	1.3061
6.0141	1.3118
6.0071	1.3113
6.0002	1.3054
5.9932	1.297
5.9863	1.2881
5.9794	1.2796
5.9725	1.2731
5.9657	1.2698
5.9588	1.2698
5.952	1.2731
5.9451	1.2783
5.9383	1.2846
5.9315	1.2903
5.9247	1.2934
5.918	1.2951
5.9112	1.297
5.9045	1.3032
5.8978	1.3155
5.8911	1.3341
5.8844	1.3573
5.8777	1.3817
5.8711	1.4049
5.8644	1.4257
5.8578	1.4449
5.8512	1.463
5.8446	1.481
5.838	1.4975
5.8314	1.5121
5.8249	1.5246
5.8184	1.537
5.8118	1.5515
5.8053	1.5703
5.7988	1.5937
5.7923	1.6202
5.7859	1.6478
5.7794	1.6738
5.773	1.6971
5.7666	1.7167
5.7602	1.7334
5.7538	1.7482
5.7474	1.7633
5.741	1.7796
5.7347	1.7968
5.7283	1.8143
5.722	1.8301
5.7157	1.8413
5.7094	1.8458
5.7031	1.843
5.6969	1.8332
5.6906	1.8164
5.6844	1.7937
5.6782	1.7669
5.6719	1.7389
5.6657	1.7126
5.6596	1.6901
5.6534	1.6715
5.6472	1.6556
5.6411	1.6401
5.6349	1.6234
5.6288	1.6043
5.6227	1.5829
5.6166	1.5607
5.6106	1.5379
5.6045	1.5138
5.5984	1.4882
5.5924	1.4617
5.5864	1.4365
5.5804	1.4154
5.5744	1.4006
5.5684	1.3946
5.5624	1.3987
5.5564	1.4126
5.5505	1.4358
5.5445	1.4667
5.5386	1.5032
5.5327	1.5422
5.5268	1.5786
5.5209	1.6095
5.5151	1.6339
5.5092	1.6533
5.5033	1.671
5.4975	1.6899
5.4917	1.7135
5.4859	1.743
5.4801	1.7774
5.4743	1.815
5.4685	1.8538
5.4628	1.8906
5.457	1.9222
5.4513	1.9437
5.4455	1.9528
5.4398	1.9487
5.4341	1.9328
5.4284	1.9084
5.4228	1.8803
5.4171	1.8531
5.4114	1.8301
5.4058	1.8119
5.4002	1.7985
5.3945	1.7892
5.3889	1.7817
5.3833	1.7753
5.3778	1.77
5.3722	1.7671
5.3666	1.7679
5.3611	1.7726
5.3555	1.7794
5.35	1.7859
5.3445	1.7892
5.339	1.7884
5.3335	1.7854
5.328	1.7824
5.3225	1.7829
5.3171	1.7877
5.3116	1.797
5.3062	1.8083
5.3008	1.8203
5.2954	1.8305
5.29	1.8392
5.2846	1.8458
5.2792	1.8531
5.2738	1.8629
5.2684	1.8775
5.2631	1.8987
5.2578	1.9268
5.2524	1.9593
5.2471	1.9942
5.2418	2.0296
5.2365	2.0648
5.2312	2.1002
5.226	2.1363
5.2207	2.1734
5.2154	2.2093
5.2102	2.2412
5.205	2.2658
5.1998	2.2815
5.1945	2.289
5.1893	2.2897
5.1842	2.287
5.179	2.2837
5.1738	2.2818
5.1686	2.282
5.1635	2.283
5.1584	2.2835
5.1532	2.2825
5.1481	2.2806
5.143	2.2794
5.1379	2.2797
5.1328	2.2825
5.1277	2.2875
5.1227	2.2933
5.1176	2.2964
5.1126	2.2966
5.1075	2.2943
5.1025	2.2902
5.0975	2.2854
5.0925	2.281
5.0875	2.2777
5.0825	2.2746
5.0775	2.2722
5.0726	2.2717
5.0676	2.2734
5.0627	2.2777
5.0577	2.2844
5.0528	2.2925
5.0479	2.3005
5.043	2.3071
5.038	2.3124
5.0332	2.317
5.0283	2.3217
5.0234	2.329
5.0185	2.3406
5.0137	2.3562
5.0088	2.3751
5.004	2.3969
4.9992	2.4196
4.9944	2.4424
4.9896	2.4643
4.9848	2.487
4.98	2.5114
4.9752	2.5383
4.9704	2.5703
4.9657	2.6095
4.9609	2.6562
4.9562	2.7084
4.9514	2.7632
4.9467	2.818
4.942	2.8713
4.9373	2.923
4.9326	2.9754
4.9279	3.0343
4.9232	3.1048
4.9186	3.1941
4.9139	3.3094
4.9092	3.4597
4.9046	3.6532
4.9	3.8951
4.8953	4.1846
4.8907	4.5164
4.8861	4.8804
4.8815	5.2632
4.8769	5.6534
4.8723	6.0429
4.8678	6.4258
4.8632	6.798
4.8586	7.1562
4.8541	7.4988
4.8495	7.8242
4.845	8.1331
4.8405	8.4291
4.836	8.7161
4.8315	8.9963
4.827	9.2707
4.8225	9.5399
4.818	9.8045
4.8135	10.0639
4.809	10.3204
4.8046	10.577
4.8001	10.8362
4.7957	11.0962
4.7913	11.3554
4.7868	11.61
4.7824	11.8543
4.778	12.0806
4.7736	12.2852
4.7692	12.4677
4.7648	12.6299
4.7605	12.7734
4.7561	12.9007
4.7517	13.0124
4.7474	13.1049
4.7431	13.1721
4.7387	13.2094
4.7344	13.2125
4.7301	13.1733
4.7258	13.0797
4.7215	12.9185
4.7172	12.6749
4.7129	12.3405
4.7086	11.9184
4.7043	11.4284
4.7	10.9068
4.6958	10.4005
4.6915	9.9605
4.6873	9.6325
4.6831	9.4449
4.6788	9.4076
4.6746	9.5105
4.6704	9.7291
4.6662	10.0347
4.662	10.4032
4.6578	10.8212
4.6536	11.2838
4.6495	11.7914
4.6453	12.3395
4.6411	12.918
4.637	13.5087
4.6328	14.0882
4.6287	14.6339
4.6246	15.1316
4.6205	15.5738
4.6163	15.9604
4.6122	16.2953
4.6081	16.5846
4.604	16.8351
4.6	17.0499
4.5959	17.2325
4.5918	17.3851
4.5877	17.5084
4.5837	17.6007
4.5796	17.6608
4.5756	17.685
4.5716	17.6691
4.5675	17.607
4.5635	17.4913
4.5595	17.3162
4.5555	17.0758
4.5515	16.7691
4.5475	16.4006
4.5435	15.9793
4.5395	15.516
4.5356	15.0222
4.5316	14.5064
4.5276	13.9724
4.5237	13.4219
4.5197	12.8579
4.5158	12.2882
4.5119	11.7275
4.508	11.198
4.504	10.7242
4.5001	10.3249
4.4962	10.0083
4.4923	9.7703
4.4884	9.5952
4.4846	9.4641
4.4807	9.3628
4.4768	9.2884
4.473	9.2473
4.4691	9.2516
4.4652	9.3126
4.4614	9.4335
4.4576	9.605
4.4537	9.8083
4.4499	10.022
4.4461	10.2288
4.4423	10.4197
4.4385	10.5979
4.4347	10.7735
4.4309	10.957
4.4271	11.1549
4.4233	11.3678
4.4196	11.593
4.4158	11.8267
4.412	12.0696
4.4083	12.3262
4.4045	12.6036
4.4008	12.9072
4.3971	13.241
4.3934	13.6035
4.3896	13.9913
4.3859	14.3992
4.3822	14.822
4.3785	15.2534
4.3748	15.686
4.3711	16.1128
4.3674	16.5262
4.3638	16.92
4.3601	17.2901
4.3564	17.6337
4.3528	17.9501
4.3491	18.2374
4.3455	18.4944
4.3418	18.719
4.3382	18.9109
4.3346	19.0692
4.331	19.193
4.3273	19.2793
4.3237	19.3253
4.3201	19.328
4.3165	19.2891
4.3129	19.2166
4.3094	19.1258
4.3058	19.0334
4.3022	18.9557
4.2986	18.9039
4.2951	18.882
4.2915	18.8865
4.288	18.9135
4.2844	18.9611
4.2809	19.0307
4.2774	19.1265
4.2738	19.2554
4.2703	19.4205
4.2668	19.6167
4.2633	19.8279
4.2598	20.0316
4.2563	20.2019
4.2528	20.3173
4.2493	20.3677
4.2458	20.3596
4.2424	20.3134
4.2389	20.255
4.2354	20.21
4.232	20.1943
4.2285	20.212
4.2251	20.255
4.2216	20.308
4.2182	20.3526
4.2148	20.3766
4.2113	20.3744
4.2079	20.351
4.2045	20.3178
4.2011	20.2909
4.1977	20.2869
4.1943	20.3158
4.1909	20.3807
4.1875	20.4766
4.1841	20.5941
4.1808	20.7216
4.1774	20.8479
4.174	20.9654
4.1707	21.0699
4.1673	21.1608
4.164	21.2379
4.1606	21.3025
4.1573	21.3573
4.154	21.4052
4.1506	21.4482
4.1473	21.4887
4.144	21.5283
4.1407	21.5685
4.1374	21.6083
4.1341	21.646
4.1308	21.6796
4.1275	21.7064
4.1242	21.7243
4.1209	21.7334
4.1177	21.7377
4.1144	21.7423
4.1111	21.7516
4.1079	21.7664
4.1046	21.7825
4.1014	21.7921
4.0981	21.7856
4.0949	21.7571
4.0917	21.7035
4.0884	21.6238
4.0852	21.5169
4.082	21.381
4.0788	21.214
4.0756	21.0168
4.0724	20.7917
4.0692	20.5435
4.066	20.2746
4.0628	19.9801
4.0596	19.6485
4.0565	19.2638
4.0533	18.8109
4.0501	18.2841
4.047	17.6895
4.0438	17.0454
4.0406	16.3788
4.0375	15.7209
4.0344	15.0971
4.0312	14.5231
4.0281	14.0054
4.025	13.5419
4.0218	13.124
4.0187	12.7397
4.0156	12.3787
4.0125	12.0334
4.0094	11.6994
4.0063	11.3757
4.0032	11.0664
4.0001	10.7778
3.997	10.5189
3.994	10.2978
3.9909	10.1199
3.9878	9.9883
3.9847	9.9029
3.9817	9.8598
3.9786	9.8523
3.9756	9.8729
3.9725	9.9167
3.9695	9.9808
3.9665	10.0634
3.9634	10.1685
3.9604	10.3022
3.9574	10.4718
3.9544	10.6831
3.9513	10.9389
3.9483	11.2365
3.9453	11.563
3.9423	11.8968
3.9393	12.2127
3.9363	12.4885
3.9333	12.711
3.9304	12.8785
3.9274	13
3.9244	13.09
3.9214	13.162
3.9185	13.2254
3.9155	13.2845
3.9126	13.3393
3.9096	13.3879
3.9067	13.4281
3.9037	13.4594
3.9008	13.4822
3.8979	13.4991
3.8949	13.5142
3.892	13.5288
3.8891	13.5439
3.8862	13.5577
3.8833	13.5688
3.8804	13.5754
3.8775	13.5783
3.8746	13.5793
3.8717	13.5807
3.8688	13.5852
3.8659	13.5949
3.863	13.6106
3.8601	13.6331
3.8573	13.6618
3.8544	13.6979
3.8515	13.742
3.8487	13.7977
3.8458	13.8724
3.843	13.9748
3.8401	14.1157
3.8373	14.3025
3.8344	14.5385
3.8316	14.8222
3.8288	15.1462
3.8259	15.5008
3.8231	15.8752
3.8203	16.263
3.8175	16.6625
3.8147	17.0775
3.8119	17.5197
3.8091	18.0039
3.8063	18.5448
3.8035	19.1537
3.8007	19.8299
3.7979	20.5589
3.7951	21.3099
3.7924	22.0416
3.7896	22.7117
3.7868	23.2847
3.7841	23.742
3.7813	24.0853
3.7785	24.3322
3.7758	24.5072
3.773	24.6348
3.7703	24.7339
3.7676	24.8138
3.7648	24.876
3.7621	24.9198
3.7594	24.9449
3.7566	24.9526
3.7539	24.9474
3.7512	24.9385
3.7485	24.9363
3.7458	24.9507
3.7431	24.988
3.7404	25.0505
3.7377	25.1349
3.735	25.2347
3.7323	25.3431
3.7296	25.4536
3.7269	25.5604
3.7242	25.6603
3.7216	25.7522
3.7189	25.8384
3.7162	25.9206
3.7136	26.0024
3.7109	26.0874
3.7083	26.1754
3.7056	26.2662
3.703	26.3599
3.7003	26.4594
3.6977	26.5693
3.695	26.6913
3.6924	26.8272
3.6898	26.9769
3.6872	27.1363
3.6845	27.2983
3.6819	27.4567
3.6793	27.6067
3.6767	27.7445
3.6741	27.8651
3.6715	27.9658
3.6689	28.0462
3.6663	28.1063
3.6637	28.1448
3.6611	28.162
3.6585	28.1608
3.656	28.1457
3.6534	28.1199
3.6508	28.0866
3.6482	28.0496
3.6457	28.0091
3.6431	27.9632
3.6406	27.9058
3.638	27.8344
3.6355	27.7486
3.6329	27.6505
3.6304	27.5445
3.6278	27.4364
3.6253	27.3323
3.6227	27.2356
3.6202	27.1435
3.6177	27.0521
3.6152	26.9578
3.6127	26.8569
3.6101	26.7456
3.6076	26.6229
3.6051	26.4889
3.6026	26.3439
3.6001	26.1862
3.5976	26.0142
3.5951	25.8263
3.5926	25.6196
3.5901	25.3886
3.5876	25.1275
3.5852	24.8349
3.5827	24.5162
3.5802	24.1843
3.5777	23.8613
3.5753	23.5728
3.5728	23.3403
3.5704	23.1696
3.5679	23.051
3.5654	22.9608
3.563	22.8682
3.5605	22.7452
3.5581	22.5744
3.5557	22.3514
3.5532	22.0813
3.5508	21.7717
3.5484	21.4307
3.5459	21.0627
3.5435	20.6675
3.5411	20.2421
3.5387	19.783
3.5363	19.2865
3.5338	18.7497
3.5314	18.1723
3.529	17.5615
3.5266	16.9316
3.5242	16.3047
3.5218	15.7072
3.5195	15.1653
3.5171	14.698
3.5147	14.3138
3.5123	14.009
3.5099	13.7707
3.5075	13.5826
3.5052	13.4287
3.5028	13.296
3.5004	13.1752
3.4981	13.0604
3.4957	12.9469
3.4934	12.8306
3.491	12.7083
3.4887	12.5799
3.4863	12.45
3.484	12.3272
3.4816	12.2241
3.4793	12.1564
3.477	12.1395
3.4746	12.1866
3.4723	12.3036
3.47	12.4869
3.4677	12.7203
3.4653	12.9769
3.463	13.2262
3.4607	13.4405
3.4584	13.6049
3.4561	13.7183
3.4538	13.7912
3.4515	13.8384
3.4492	13.8736
3.4469	13.9049
3.4446	13.9358
3.4423	13.964
3.44	13.9865
3.4378	14.0022
3.4355	14.0109
3.4332	14.0112
3.4309	14.0037
3.4287	13.9918
3.4264	13.9776
3.4241	13.9607
3.4219	13.9401
3.4196	13.9152
3.4174	13.8834
3.4151	13.8415
3.4129	13.7915
3.4106	13.7376
3.4084	13.6836
3.4061	13.6322
3.4039	13.5851
3.4017	13.541
3.3994	13.4953
3.3972	13.4431
3.395	13.3824
3.3928	13.314
3.3906	13.2415
3.3883	13.1714
3.3861	13.1087
3.3839	13.0558
3.3817	13.0122
3.3795	12.9756
3.3773	12.9433
3.3751	12.9122
3.3729	12.8806
3.3707	12.8462
3.3685	12.8026
3.3663	12.7435
3.3641	12.6641
3.362	12.5619
3.3598	12.4399
3.3576	12.306
3.3554	12.1765
3.3533	12.0739
3.3511	12.0256
3.3489	12.0619
3.3468	12.2102
3.3446	12.4871
3.3425	12.8904
3.3403	13.3977
3.3382	13.9693
3.336	14.5556
3.3339	15.1095
3.3317	15.595
3.3296	15.9924
3.3274	16.2992
3.3253	16.5257
3.3232	16.6879
3.321	16.8021
3.3189	16.881
3.3168	16.9346
3.3147	16.9698
3.3126	16.9904
3.3104	17.0016
3.3083	17.0112
3.3062	17.0246
3.3041	17.0446
3.302	17.0703
3.2999	17.0983
3.2978	17.1205
3.2957	17.1278
3.2936	17.1162
3.2915	17.088
3.2894	17.0478
3.2874	17.0011
3.2853	16.9518
3.2832	16.9025
3.2811	16.8519
3.279	16.7956
3.277	16.7339
3.2749	16.6695
3.2728	16.6042
3.2708	16.5399
3.2687	16.4764
3.2666	16.4142
3.2646	16.3508
3.2625	16.2844
3.2605	16.2166
3.2584	16.1489
3.2564	16.0786
3.2543	16.0032
3.2523	15.9197
3.2503	15.8266
3.2482	15.7252
3.2462	15.6213
3.2442	15.525
3.2421	15.4397
3.2401	15.3648
3.2381	15.2957
