Name:  Hornblende Ca2(Fe+2,Mg)4Al(Si7Al)O22(OH,F)2
Type:  Mineral
Class:  Silicates
Subclass:  Inosilicates (Amphibole Group)
Particle Size:  fine (Less than 2 micrometers)
Sample No.:  hornblen.3
Owner:  JHU
Wavelength Range:  IR
Origin:  Calumet Island, Ottowa River, Canada via the Smithsaonian 
(sample no. NMNH 78662)
Description: Sample was a cluster of several large, deep green 
crystals. A small amount of contamination was found in thin veins 
along cleavage planes. Microscopic examination revealed newr purity 
with less than 1% impurities of low index veins. An index of 
refraction of <1.64 and pleochroism (green to greenish brown) 
indicated that this is probably magnesian hornblende.
Measurement: transmission
First Column:  X
Second Column:  Y  
X Units:  Wavelength (micrometers)
Y Units:  transmittance (percent)
First X Value:  25.044
Last X Value:  2.0795
Number of X Values:  2287
Additional Information: hornbl3a.txt

25.044	58.785
24.924	57.801
24.805	57.519
24.686	57.937
24.569	57.937
24.454	57.191
24.339	55.203
24.225	53.613
24.112	52.359
24.001	51.211
23.890	50.640
23.781	50.719
23.672	50.939
23.564	50.875
23.458	50.211
23.352	49.033
23.247	47.525
23.144	45.703
23.041	43.254
22.939	41.025
22.838	39.289
22.738	37.426
22.638	36.039
22.540	35.238
22.442	35.166
22.345	35.133
22.250	34.811
22.154	34.148
22.060	33.393
21.967	32.357
21.874	31.473
21.782	31.135
21.691	31.133
21.601	31.476
21.511	32.140
21.422	33.090
21.334	34.137
21.247	35.189
21.160	36.592
21.074	38.002
20.988	39.393
20.904	41.060
20.820	43.074
20.737	45.293
20.654	47.824
20.572	50.298
20.491	52.337
20.410	53.320
20.330	53.398
20.251	52.609
20.172	51.324
20.094	49.580
20.016	47.764
19.939	46.051
19.863	44.637
19.787	43.605
19.712	43.131
19.637	43.215
19.563	43.852
19.489	44.754
19.416	45.961
19.344	47.387
19.272	48.657
19.201	49.806
19.130	50.602
19.059	51.243
18.990	51.773
18.920	52.398
18.851	53.161
18.783	53.751
18.715	54.201
18.648	54.531
18.581	54.801
18.515	54.942
18.449	55.443
18.384	56.239
18.319	57.541
18.254	59.020
18.190	60.824
18.126	62.580
18.063	64.384
18.001	66.101
17.938	67.657
17.876	69.052
17.815	70.430
17.754	71.609
17.693	72.551
17.633	73.552
17.573	74.470
17.514	75.269
17.455	76.044
17.396	76.849
17.338	77.561
17.280	78.246
17.223	79.032
17.166	79.601
17.109	80.145
17.053	80.735
16.997	81.423
16.942	81.894
16.886	82.406
16.832	82.916
16.777	83.324
16.723	83.694
16.669	84.130
16.616	84.488
16.563	84.888
16.510	85.333
16.458	85.600
16.406	85.849
16.354	86.097
16.302	86.400
16.251	86.579
16.200	86.827
16.150	87.084
16.100	87.236
16.050	87.321
16.000	87.418
15.951	87.347
15.902	87.089
15.854	86.685
15.805	86.134
15.757	85.297
15.710	84.304
15.662	83.020
15.615	81.932
15.568	81.221
15.521	81.135
15.475	81.446
15.429	81.812
15.383	81.856
15.338	81.447
15.292	80.674
15.248	79.945
15.203	79.362
15.158	79.043
15.114	79.024
15.070	79.422
15.027	79.929
14.983	80.556
14.940	80.982
14.897	81.153
14.854	80.732
14.812	79.934
14.770	78.658
14.728	77.141
14.686	75.598
14.645	74.378
14.603	73.644
14.562	73.584
14.521	74.299
14.481	75.552
14.441	77.064
14.400	78.592
14.361	80.071
14.321	81.381
14.281	82.403
14.242	83.190
14.203	83.866
14.164	84.369
14.126	84.705
14.087	85.039
14.049	85.211
14.011	85.292
13.973	85.282
13.936	85.032
13.899	84.282
13.861	83.416
13.824	82.748
13.788	82.590
13.751	82.725
13.715	82.812
13.679	82.547
13.643	81.964
13.607	81.246
13.571	80.450
13.536	79.811
13.500	79.069
13.465	78.055
13.430	76.625
13.396	74.857
13.361	72.928
13.327	70.701
13.293	68.391
13.259	66.729
13.225	66.620
13.191	68.076
13.158	70.709
13.124	73.816
13.091	76.814
13.058	79.298
13.026	81.470
12.993	83.185
12.960	84.404
12.928	85.573
12.896	86.622
12.864	87.490
12.832	88.145
12.800	88.803
12.769	89.184
12.737	89.657
12.706	89.983
12.675	90.055
12.644	90.137
12.614	90.204
12.583	90.146
12.552	90.045
12.522	89.956
12.492	89.764
12.462	89.397
12.432	89.020
12.402	88.627
12.373	88.191
12.343	87.568
12.314	87.030
12.285	86.476
12.256	85.953
12.227	85.380
12.198	84.784
12.169	84.189
12.141	83.636
12.113	82.951
12.084	82.260
12.056	81.611
12.028	80.950
12.000	80.223
11.973	79.451
11.945	78.735
11.918	77.985
11.890	77.265
11.863	76.580
11.836	75.977
11.809	75.292
11.782	74.629
11.755	74.047
11.729	73.434
11.702	72.792
11.676	72.074
11.650	71.395
11.624	70.731
11.598	70.045
11.572	69.416
11.546	68.739
11.520	67.970
11.495	67.170
11.469	66.351
11.444	65.473
11.419	64.595
11.394	63.728
11.369	62.884
11.344	62.008
11.319	61.096
11.294	60.205
11.270	59.297
11.245	58.278
11.221	57.301
11.197	56.389
11.173	55.318
11.149	54.268
11.125	53.221
11.101	52.020
11.077	50.756
11.054	49.407
11.030	48.021
11.007	46.580
10.983	45.060
10.960	43.493
10.937	42.094
10.914	40.881
10.891	40.117
10.868	39.893
10.846	40.248
10.823	41.520
10.800	43.170
10.778	44.559
10.755	45.295
10.733	45.261
10.711	44.338
10.689	42.864
10.667	41.453
10.645	39.647
10.623	37.934
10.602	36.741
10.580	35.398
10.558	34.336
10.537	33.981
10.516	33.980
10.494	34.235
10.473	34.813
10.452	35.609
10.431	36.452
10.410	37.379
10.389	38.228
10.368	38.963
10.348	39.515
10.327	39.971
10.306	40.264
10.286	40.361
10.266	40.396
10.245	40.270
10.225	39.935
10.205	39.427
10.185	38.757
10.165	37.897
10.145	36.943
10.125	35.999
10.106	35.140
10.086	34.543
10.066	34.287
10.047	34.447
10.027	34.949
10.008	35.747
9.9887	36.654
9.9695	37.600
9.9504	38.463
9.9313	39.300
9.9123	40.045
9.8934	40.760
9.8746	41.479
9.8558	42.168
9.8371	42.972
9.8185	43.974
9.7999	45.228
9.7814	46.697
9.7630	48.359
9.7447	50.012
9.7264	51.283
9.7082	51.993
9.6900	51.984
9.6719	51.397
9.6539	50.466
9.6360	49.751
9.6181	49.323
9.6003	49.136
9.5825	48.957
9.5649	48.754
9.5472	48.507
9.5297	48.230
9.5122	48.001
9.4948	47.789
9.4774	47.672
9.4601	47.573
9.4429	47.544
9.4257	47.593
9.4086	47.797
9.3916	48.170
9.3746	48.586
9.3577	49.125
9.3408	49.675
9.3240	50.246
9.3073	50.729
9.2906	51.121
9.2740	51.393
9.2574	51.535
9.2409	51.520
9.2245	51.286
9.2081	50.821
9.1918	50.166
9.1755	49.417
9.1593	48.575
9.1431	47.757
9.1270	47.047
9.1110	46.486
9.0950	46.106
9.0791	45.919
9.0632	45.876
9.0474	46.049
9.0316	46.451
9.0159	47.044
9.0003	47.817
8.9847	48.763
8.9691	49.926
8.9536	51.202
8.9382	52.531
8.9228	53.813
8.9075	54.893
8.8922	55.680
8.8770	56.227
8.8618	56.857
8.8467	57.671
8.8316	58.602
8.8166	59.588
8.8016	60.558
8.7867	61.487
8.7718	62.376
8.7570	63.235
8.7422	64.021
8.7275	64.820
8.7129	65.524
8.6982	66.235
8.6837	66.902
8.6692	67.554
8.6547	68.137
8.6403	68.708
8.6259	69.254
8.6116	69.768
8.5973	70.180
8.5830	70.575
8.5688	70.973
8.5547	71.346
8.5406	71.657
8.5266	71.966
8.5126	72.290
8.4986	72.572
8.4847	72.911
8.4708	73.236
8.4570	73.546
8.4432	73.838
8.4295	74.126
8.4158	74.441
8.4022	74.753
8.3886	75.048
8.3750	75.341
8.3615	75.620
8.3481	75.897
8.3347	76.175
8.3213	76.466
8.3079	76.748
8.2946	77.052
8.2814	77.293
8.2682	77.549
8.2550	77.792
8.2419	78.075
8.2288	78.283
8.2158	78.520
8.2028	78.731
8.1898	78.935
8.1769	79.119
8.1640	79.352
8.1512	79.567
8.1384	79.736
8.1256	79.908
8.1129	80.083
8.1002	80.253
8.0876	80.429
8.0750	80.634
8.0624	80.802
8.0499	80.960
8.0374	81.160
8.0250	81.343
8.0126	81.519
8.0002	81.743
7.9879	81.967
7.9756	82.166
7.9634	82.402
7.9512	82.690
7.9390	82.914
7.9268	83.124
7.9147	83.281
7.9027	83.386
7.8906	83.420
7.8786	83.558
7.8667	83.661
7.8548	83.751
7.8429	83.850
7.8310	84.027
7.8192	84.156
7.8075	84.298
7.7957	84.418
7.7840	84.536
7.7723	84.665
7.7607	84.789
7.7491	84.960
7.7375	85.062
7.7260	85.180
7.7145	85.296
7.7031	85.396
7.6916	85.508
7.6802	85.626
7.6689	85.765
7.6575	85.851
7.6462	85.973
7.6350	86.087
7.6238	86.196
7.6126	86.306
7.6014	86.463
7.5903	86.593
7.5792	86.697
7.5681	86.826
7.5571	86.927
7.5461	87.026
7.5351	87.110
7.5242	87.224
7.5133	87.278
7.5024	87.360
7.4916	87.441
7.4807	87.496
7.4700	87.564
7.4592	87.648
7.4485	87.756
7.4378	87.811
7.4272	87.923
7.4165	88.035
7.4059	88.092
7.3954	88.169
7.3848	88.211
7.3743	88.279
7.3639	88.332
7.3534	88.413
7.3430	88.475
7.3326	88.619
7.3223	88.702
7.3119	88.759
7.3016	88.809
7.2914	88.911
7.2811	89.008
7.2709	89.061
7.2607	89.135
7.2506	89.186
7.2404	89.194
7.2303	89.111
7.2203	89.162
7.2102	89.397
7.2002	89.631
7.1902	89.824
7.1803	90.005
7.1703	90.136
7.1604	90.254
7.1506	90.388
7.1407	90.458
7.1309	90.496
7.1211	90.559
7.1113	90.616
7.1016	90.626
7.0919	90.615
7.0822	90.654
7.0725	90.659
7.0629	90.727
7.0533	90.785
7.0437	90.860
7.0341	90.907
7.0246	90.979
7.0151	91.050
7.0056	91.128
6.9962	91.226
6.9867	91.351
6.9773	91.444
6.9679	91.551
6.9586	91.669
6.9493	91.759
6.9400	91.826
6.9307	91.943
6.9214	92.010
6.9122	92.047
6.9030	92.090
6.8938	92.165
6.8847	92.188
6.8755	92.230
6.8664	92.282
6.8573	92.289
6.8483	92.311
6.8393	92.364
6.8302	92.432
6.8213	92.464
6.8123	92.521
6.8034	92.591
6.7944	92.654
6.7855	92.683
6.7767	92.751
6.7678	92.793
6.7590	92.853
6.7502	92.937
6.7414	92.995
6.7327	93.024
6.7239	93.128
6.7152	93.247
6.7065	93.317
6.6979	93.383
6.6892	93.475
6.6806	93.531
6.6720	93.584
6.6634	93.652
6.6549	93.717
6.6464	93.772
6.6378	93.860
6.6294	93.930
6.6209	93.994
6.6124	94.054
6.6040	94.145
6.5956	94.191
6.5872	94.248
6.5789	94.327
6.5705	94.373
6.5622	94.397
6.5539	94.444
6.5456	94.517
6.5374	94.550
6.5292	94.596
6.5209	94.633
6.5128	94.633
6.5046	94.645
6.4964	94.719
6.4883	94.751
6.4802	94.771
6.4721	94.817
6.4640	94.845
6.4560	94.841
6.4480	94.878
6.4399	94.917
6.4320	94.952
6.4240	94.946
6.4160	94.990
6.4081	95.000
6.4002	94.978
6.3923	94.959
6.3844	94.985
6.3766	94.972
6.3687	94.958
6.3609	94.972
6.3531	94.967
6.3454	94.961
6.3376	94.950
6.3299	94.940
6.3221	94.935
6.3144	94.927
6.3068	94.906
6.2991	94.866
6.2914	94.822
6.2838	94.796
6.2762	94.735
6.2686	94.693
6.2611	94.657
6.2535	94.645
6.2460	94.554
6.2385	94.498
6.2310	94.448
6.2235	94.397
6.2160	94.288
6.2086	94.218
6.2011	94.109
6.1937	93.985
6.1863	93.865
6.1790	93.772
6.1716	93.663
6.1643	93.601
6.1570	93.593
6.1496	93.571
6.1424	93.611
6.1351	93.736
6.1278	93.819
6.1206	93.812
6.1134	93.806
6.1062	93.812
6.0990	93.832
6.0918	93.928
6.0847	94.031
6.0776	94.145
6.0704	94.270
6.0633	94.440
6.0563	94.626
6.0492	94.863
6.0421	95.108
6.0351	95.373
6.0281	95.640
6.0211	95.917
6.0141	96.210
6.0071	96.385
6.0002	96.600
5.9932	96.754
5.9863	96.850
5.9794	96.874
5.9725	96.874
5.9657	96.832
5.9588	96.746
5.9520	96.663
5.9451	96.612
5.9383	96.541
5.9315	96.451
5.9247	96.457
5.9180	96.453
5.9112	96.462
5.9045	96.506
5.8978	96.553
5.8911	96.593
5.8844	96.616
5.8777	96.678
5.8711	96.725
5.8644	96.760
5.8578	96.802
5.8512	96.827
5.8446	96.859
5.8380	96.942
5.8314	97.003
5.8249	97.019
5.8184	97.089
5.8118	97.156
5.8053	97.229
5.7988	97.252
5.7923	97.306
5.7859	97.337
5.7794	97.357
5.7730	97.408
5.7666	97.452
5.7602	97.477
5.7538	97.510
5.7474	97.583
5.7410	97.621
5.7347	97.647
5.7283	97.692
5.7220	97.707
5.7157	97.711
5.7094	97.734
5.7031	97.776
5.6969	97.784
5.6906	97.788
5.6844	97.773
5.6782	97.771
5.6719	97.763
5.6657	97.785
5.6596	97.818
5.6534	97.827
5.6472	97.863
5.6411	97.899
5.6349	97.927
5.6288	97.937
5.6227	97.949
5.6166	97.952
5.6106	97.990
5.6045	98.034
5.5984	98.066
5.5924	98.082
5.5864	98.087
5.5804	98.129
5.5744	98.130
5.5684	98.166
5.5624	98.172
5.5564	98.175
5.5505	98.172
5.5445	98.227
5.5386	98.274
5.5327	98.309
5.5268	98.341
5.5209	98.359
5.5151	98.380
5.5092	98.378
5.5033	98.401
5.4975	98.397
5.4917	98.414
5.4859	98.451
5.4801	98.453
5.4743	98.448
5.4685	98.480
5.4628	98.494
5.4570	98.474
5.4513	98.491
5.4455	98.536
5.4398	98.567
5.4341	98.589
5.4284	98.628
5.4228	98.648
5.4171	98.651
5.4114	98.694
5.4058	98.736
5.4002	98.722
5.3945	98.719
5.3889	98.737
5.3833	98.738
5.3778	98.730
5.3722	98.751
5.3666	98.740
5.3611	98.719
5.3555	98.719
5.3500	98.745
5.3445	98.741
5.3390	98.765
5.3335	98.787
5.3280	98.791
5.3225	98.765
5.3171	98.805
5.3116	98.830
5.3062	98.835
5.3008	98.839
5.2954	98.859
5.2900	98.854
5.2846	98.874
5.2792	98.908
5.2738	98.912
5.2684	98.898
5.2631	98.925
5.2578	98.951
5.2524	98.953
5.2471	99.005
5.2418	99.036
5.2365	99.050
5.2312	99.077
5.2260	99.127
5.2207	99.111
5.2154	99.136
5.2102	99.155
5.2050	99.164
5.1998	99.151
5.1945	99.193
5.1893	99.224
5.1842	99.226
5.1790	99.206
5.1738	99.212
5.1686	99.188
5.1635	99.172
5.1584	99.141
5.1532	99.129
5.1481	99.110
5.1430	99.116
5.1379	99.107
5.1328	99.098
5.1277	99.094
5.1227	99.115
5.1176	99.152
5.1126	99.162
5.1075	99.165
5.1025	99.167
5.0975	99.198
5.0925	99.188
5.0875	99.198
5.0825	99.179
5.0775	99.174
5.0726	99.195
5.0676	99.181
5.0627	99.173
5.0577	99.202
5.0528	99.245
5.0479	99.272
5.0430	99.315
5.0380	99.326
5.0332	99.318
5.0283	99.314
5.0234	99.315
5.0185	99.333
5.0137	99.349
5.0088	99.376
5.0040	99.377
4.9992	99.401
4.9944	99.419
4.9896	99.407
4.9848	99.417
4.9800	99.459
4.9752	99.468
4.9704	99.471
4.9657	99.464
4.9609	99.463
4.9562	99.469
4.9514	99.451
4.9467	99.480
4.9420	99.509
4.9373	99.514
4.9326	99.528
4.9279	99.522
4.9232	99.544
4.9186	99.548
4.9139	99.583
4.9092	99.591
4.9046	99.574
4.9000	99.594
4.8953	99.582
4.8907	99.597
4.8861	99.620
4.8815	99.604
4.8769	99.570
4.8723	99.592
4.8678	99.613
4.8632	99.607
4.8586	99.603
4.8541	99.616
4.8495	99.623
4.8450	99.641
4.8405	99.678
4.8360	99.669
4.8315	99.666
4.8270	99.645
4.8225	99.648
4.8180	99.661
4.8135	99.654
4.8090	99.650
4.8046	99.663
4.8001	99.674
4.7957	99.701
4.7913	99.738
4.7868	99.730
4.7824	99.726
4.7780	99.745
4.7736	99.753
4.7692	99.748
4.7648	99.766
4.7605	99.803
4.7561	99.799
4.7517	99.819
4.7474	99.819
4.7431	99.844
4.7387	99.820
4.7344	99.829
4.7301	99.841
4.7258	99.833
4.7215	99.828
4.7172	99.836
4.7129	99.852
4.7086	99.865
4.7043	99.891
4.7000	99.897
4.6958	99.878
4.6915	99.890
4.6873	99.918
4.6831	99.938
4.6788	99.946
4.6746	99.941
4.6704	99.926
4.6662	99.941
4.6620	99.956
4.6578	99.962
4.6536	99.995
4.6495	100.03
4.6453	100.02
4.6411	100.00
4.6370	100.02
4.6328	100.02
4.6287	100.00
4.6246	100.02
4.6205	100.02
4.6163	99.979
4.6122	100.06
4.6081	100.17
4.6040	100.15
4.6000	100.10
4.5959	100.11
4.5918	100.10
4.5877	100.10
4.5837	100.09
4.5796	100.06
4.5756	100.04
4.5716	100.05
4.5675	100.08
4.5635	100.11
4.5595	100.12
4.5555	100.11
4.5515	100.09
4.5475	100.11
4.5435	100.13
4.5395	100.13
4.5356	100.11
4.5316	100.11
4.5276	100.10
4.5237	100.11
4.5197	100.11
4.5158	100.09
4.5119	100.07
4.5080	100.08
4.5040	100.09
4.5001	100.08
4.4962	100.05
4.4923	100.07
4.4884	100.10
4.4846	100.12
4.4807	100.10
4.4768	100.10
4.4730	100.10
4.4691	100.10
4.4652	100.08
4.4614	100.08
4.4576	100.07
4.4537	100.04
4.4499	100.03
4.4461	100.02
4.4423	100.05
4.4385	100.04
4.4347	100.03
4.4309	100.00
4.4271	100.03
4.4233	100.06
4.4196	100.07
4.4158	100.03
4.4120	100.03
4.4083	100.04
4.4045	100.03
4.4008	100.04
4.3971	100.04
4.3934	100.01
4.3896	100.02
4.3859	100.04
4.3822	100.06
4.3785	100.04
4.3748	100.01
4.3711	100.02
4.3674	99.987
4.3638	100.00
4.3601	100.02
4.3564	99.989
4.3528	99.980
4.3491	99.980
4.3455	99.952
4.3418	99.976
4.3382	100.01
4.3346	99.991
4.3310	99.960
4.3273	99.969
4.3237	99.985
4.3201	100.01
4.3165	100.01
4.3129	100.00
4.3094	100.01
4.3058	99.981
4.3022	99.952
4.2986	99.942
4.2951	99.939
4.2915	99.944
4.2880	99.991
4.2844	99.962
4.2809	99.975
4.2774	99.991
4.2738	99.989
4.2703	99.970
4.2668	99.950
4.2633	99.950
4.2598	99.942
4.2563	99.939
4.2528	99.951
4.2493	99.971
4.2458	99.957
4.2424	99.955
4.2389	99.956
4.2354	99.970
4.2320	99.966
4.2285	99.915
4.2251	99.901
4.2216	99.899
4.2182	99.902
4.2148	99.898
4.2113	99.887
4.2079	99.887
4.2045	99.878
4.2011	99.842
4.1977	99.859
4.1943	99.850
4.1909	99.864
4.1875	99.857
4.1841	99.848
4.1808	99.873
4.1774	99.886
4.1740	99.879
4.1707	99.872
4.1673	99.861
4.1640	99.870
4.1606	99.838
4.1573	99.837
4.1540	99.812
4.1506	99.795
4.1473	99.802
4.1440	99.816
4.1407	99.843
4.1374	99.862
4.1341	99.841
4.1308	99.832
4.1275	99.836
4.1242	99.796
4.1209	99.790
4.1177	99.800
4.1144	99.773
4.1111	99.744
4.1079	99.769
4.1046	99.782
4.1014	99.768
4.0981	99.753
4.0949	99.781
4.0917	99.756
4.0884	99.718
4.0852	99.733
4.0820	99.766
4.0788	99.779
4.0756	99.761
4.0724	99.734
4.0692	99.738
4.0660	99.727
4.0628	99.717
4.0596	99.681
4.0565	99.670
4.0533	99.681
4.0501	99.696
4.0470	99.685
4.0438	99.694
4.0406	99.709
4.0375	99.707
4.0344	99.721
4.0312	99.706
4.0281	99.675
4.0250	99.660
4.0218	99.688
4.0187	99.678
4.0156	99.621
4.0125	99.630
4.0094	99.635
4.0063	99.615
4.0032	99.608
4.0001	99.594
3.9970	99.547
3.9940	99.536
3.9909	99.547
3.9878	99.526
3.9847	99.489
3.9817	99.469
3.9786	99.447
3.9756	99.454
3.9725	99.447
3.9695	99.437
3.9665	99.431
3.9634	99.440
3.9604	99.468
3.9574	99.457
3.9544	99.441
3.9513	99.488
3.9483	99.524
3.9453	99.541
3.9423	99.531
3.9393	99.529
3.9363	99.545
3.9333	99.531
3.9304	99.521
3.9274	99.510
3.9244	99.509
3.9214	99.545
3.9185	99.548
3.9155	99.475
3.9126	99.451
3.9096	99.471
3.9067	99.480
3.9037	99.491
3.9008	99.500
3.8979	99.492
3.8949	99.478
3.8920	99.460
3.8891	99.449
3.8862	99.438
3.8833	99.395
3.8804	99.365
3.8775	99.354
3.8746	99.343
3.8717	99.323
3.8688	99.299
3.8659	99.302
3.8630	99.318
3.8601	99.341
3.8573	99.348
3.8544	99.311
3.8515	99.320
3.8487	99.365
3.8458	99.379
3.8430	99.350
3.8401	99.342
3.8373	99.339
3.8344	99.339
3.8316	99.315
3.8288	99.289
3.8259	99.307
3.8231	99.321
3.8203	99.301
3.8175	99.289
3.8147	99.250
3.8119	99.231
3.8091	99.211
3.8063	99.212
3.8035	99.251
3.8007	99.248
3.7979	99.215
3.7951	99.229
3.7924	99.228
3.7896	99.248
3.7868	99.266
3.7841	99.300
3.7813	99.300
3.7785	99.272
3.7758	99.238
3.7730	99.211
3.7703	99.201
3.7676	99.190
3.7648	99.169
3.7621	99.137
3.7594	99.123
3.7566	99.106
3.7539	99.092
3.7512	99.074
3.7485	99.095
3.7458	99.098
3.7431	99.100
3.7404	99.097
3.7377	99.101
3.7350	99.083
3.7323	99.084
3.7296	99.102
3.7269	99.089
3.7242	99.102
3.7216	99.104
3.7189	99.104
3.7162	99.078
3.7136	99.035
3.7109	98.973
3.7083	98.926
3.7056	98.891
3.7030	98.892
3.7003	98.872
3.6977	98.850
3.6950	98.887
3.6924	98.898
3.6898	98.878
3.6872	98.889
3.6845	98.895
3.6819	98.880
3.6793	98.877
3.6767	98.866
3.6741	98.825
3.6715	98.814
3.6689	98.826
3.6663	98.809
3.6637	98.809
3.6611	98.802
3.6585	98.767
3.6560	98.775
3.6534	98.814
3.6508	98.807
3.6482	98.849
3.6457	98.856
3.6431	98.855
3.6406	98.801
3.6380	98.713
3.6355	98.702
3.6329	98.684
3.6304	98.684
3.6278	98.680
3.6253	98.696
3.6227	98.695
3.6202	98.656
3.6177	98.632
3.6152	98.637
3.6127	98.663
3.6101	98.689
3.6076	98.671
3.6051	98.654
3.6026	98.637
3.6001	98.643
3.5976	98.606
3.5951	98.616
3.5926	98.637
3.5901	98.611
3.5876	98.631
3.5852	98.612
3.5827	98.598
3.5802	98.569
3.5777	98.575
3.5753	98.595
3.5728	98.607
3.5704	98.536
3.5679	98.528
3.5654	98.530
3.5630	98.490
3.5605	98.461
3.5581	98.422
3.5557	98.391
3.5532	98.384
3.5508	98.408
3.5484	98.373
3.5459	98.389
3.5435	98.418
3.5411	98.409
3.5387	98.422
3.5363	98.411
3.5338	98.382
3.5314	98.335
3.5290	98.356
3.5266	98.343
3.5242	98.321
3.5218	98.295
3.5195	98.270
3.5171	98.264
