Name: Garnetiferous Mica Schist
Type: Rock
Class: Metamorphic
Subclass:  Schist 
Particle Size: Solid surface
Sample No.: Ward84.txt
Owner: JPL
Wavelength range:  VNIR SWIR IR 
Origin: Ward's Collection of American Rocks.  Sample locality - Gassets, Windsor County, Vermont.  Collected by - JPL.
Collected by:  Ward's Natural Science
Description: The hand specimen is a porphyroblastic, schistose rock
composed of scaly, silvery mica, quartz and garnet with biotite and
some staurolite and occasional kyanite. Geologic age - Upper Cambrian(?)


Measurement: Hemispherical reflectance
First Column: X
Second Column: Y
X Units: Wavelength (micrometers)
Y Units: Reflectance (percent)
First X Value: 2.500
Last X Value: 0.400
Number of X Values: 2101
Additional information: None

2.500  21.251457
2.499  20.949804
2.498  21.065750
2.497  21.232747
2.496  20.643315
2.495  21.050253
2.494  20.840516
2.493  20.915905
2.492  20.792809
2.491  20.988056
2.490  20.802698
2.489  20.865649
2.488  20.706043
2.487  20.975390
2.486  20.653816
2.485  20.682997
2.484  20.629343
2.483  20.725093
2.482  20.722647
2.481  20.737300
2.480  20.694526
2.479  20.595363
2.478  20.521307
2.477  20.579863
2.476  20.379190
2.475  20.517198
2.474  20.386823
2.473  20.490974
2.472  20.421441
2.471  20.540918
2.470  20.252181
2.469  20.411490
2.468  20.211629
2.467  20.391625
2.466  20.030066
2.465  20.175458
2.464  20.068364
2.463  20.123085
2.462  19.927894
2.461  19.943778
2.460  19.904913
2.459  19.928276
2.458  19.866184
2.457  19.841269
2.456  19.677233
2.455  19.811230
2.454  19.586266
2.453  19.719170
2.452  19.653899
2.451  19.568428
2.450  19.565496
2.449  19.500995
2.448  19.513875
2.447  19.547007
2.446  19.331103
2.445  19.510409
2.444  19.374738
2.443  19.411008
2.442  19.289180
2.441  19.380573
2.440  19.211209
2.439  19.329866
2.438  19.224492
2.437  19.266733
2.436  19.252958
2.435  19.344979
2.434  19.233770
2.433  19.358295
2.432  19.312140
2.431  19.383926
2.430  19.291769
2.429  19.414257
2.428  19.350214
2.427  19.440932
2.426  19.421409
2.425  19.523957
2.424  19.551443
2.423  19.604480
2.422  19.568731
2.421  19.716447
2.420  19.671375
2.419  19.771108
2.418  19.787982
2.417  19.879214
2.416  19.940841
2.415  19.984741
2.414  20.035757
2.413  20.118500
2.412  20.120694
2.411  20.232345
2.410  20.174588
2.409  20.203655
2.408  20.255713
2.407  20.340102
2.406  20.358472
2.405  20.468369
2.404  20.435226
2.403  20.469693
2.402  20.473826
2.401  20.557167
2.400  20.528040
2.399  20.567174
2.398  20.606718
2.397  20.628556
2.396  20.604606
2.395  20.649890
2.394  20.638945
2.393  20.720334
2.392  20.710678
2.391  20.721425
2.390  20.694687
2.389  20.707102
2.388  20.725465
2.387  20.724348
2.386  20.716443
2.385  20.779359
2.384  20.714137
2.383  20.782962
2.382  20.759200
2.381  20.749920
2.380  20.762551
2.379  20.806799
2.378  20.766881
2.377  20.812165
2.376  20.798213
2.375  20.779821
2.374  20.796353
2.373  20.813195
2.372  20.817735
2.371  20.811113
2.370  20.803262
2.369  20.830291
2.368  20.772045
2.367  20.759223
2.366  20.775714
2.365  20.797769
2.364  20.802530
2.363  20.813173
2.362  20.818015
2.361  20.794731
2.360  20.788875
2.359  20.763113
2.358  20.724679
2.357  20.752577
2.356  20.728789
2.355  20.706018
2.354  20.678779
2.353  20.626593
2.352  20.603693
2.351  20.604631
2.350  20.602264
2.349  20.632876
2.348  20.653005
2.347  20.662692
2.346  20.626414
2.345  20.542020
2.344  20.607714
2.343  20.615732
2.342  20.638446
2.341  20.676612
2.340  20.716147
2.339  20.752490
2.338  20.775676
2.337  20.868537
2.336  20.959497
2.335  20.956724
2.334  21.060852
2.333  21.113057
2.332  21.153676
2.331  21.245079
2.330  21.409597
2.329  21.483844
2.328  21.602890
2.327  21.647950
2.326  21.764991
2.325  21.877336
2.324  21.983004
2.323  22.043052
2.322  22.151933
2.321  22.264450
2.320  22.431787
2.319  22.539085
2.318  22.656786
2.317  22.710289
2.316  22.880018
2.315  22.986692
2.314  23.091718
2.313  23.234306
2.312  23.399823
2.311  23.463103
2.310  23.615982
2.309  23.697976
2.308  23.826739
2.307  23.931651
2.306  24.107673
2.305  24.245443
2.304  24.370795
2.303  24.451568
2.302  24.571308
2.301  24.640249
2.300  24.809192
2.299  24.891807
2.298  24.972039
2.297  25.039682
2.296  25.194338
2.295  25.275987
2.294  25.362144
2.293  25.449834
2.292  25.501708
2.291  25.546575
2.290  25.601318
2.289  25.648910
2.288  25.790185
2.287  25.751179
2.286  25.848574
2.285  25.809306
2.284  25.853924
2.283  25.937396
2.282  25.975627
2.281  25.986617
2.280  26.018304
2.279  26.018757
2.278  26.041953
2.277  25.970764
2.276  26.031879
2.275  25.930999
2.274  25.982953
2.273  25.946733
2.272  25.957000
2.271  25.936395
2.270  25.967718
2.269  25.876113
2.268  25.913415
2.267  25.802254
2.266  25.791651
2.265  25.652110
2.264  25.726754
2.263  25.565499
2.262  25.585759
2.261  25.431354
2.260  25.473768
2.259  25.242673
2.258  25.286484
2.257  25.167930
2.256  25.073928
2.255  24.976509
2.254  24.914658
2.253  24.815215
2.252  24.777658
2.251  24.558260
2.250  24.563793
2.249  24.463796
2.248  24.442732
2.247  24.229482
2.246  24.235082
2.245  24.153671
2.244  24.114545
2.243  23.966851
2.242  23.868752
2.241  23.737043
2.240  23.806830
2.239  23.649498
2.238  23.677449
2.237  23.570544
2.236  23.485615
2.235  23.292003
2.234  23.299442
2.233  23.223304
2.232  23.050837
2.231  22.965070
2.230  22.839343
2.229  22.702051
2.228  22.722958
2.227  22.555283
2.226  22.417254
2.225  22.160957
2.224  22.165335
2.223  21.893497
2.222  21.771673
2.221  21.584835
2.220  21.405839
2.219  21.150052
2.218  21.058315
2.217  20.807383
2.216  20.662900
2.215  20.426255
2.214  20.348098
2.213  20.061141
2.212  20.039482
2.211  19.519932
2.210  19.702137
2.209  19.283147
2.208  19.271648
2.207  19.102471
2.206  19.022531
2.205  18.899662
2.204  18.811961
2.203  18.672717
2.202  18.684948
2.201  18.585343
2.200  18.640502
2.199  18.523704
2.198  18.556682
2.197  18.574004
2.196  18.658116
2.195  18.595850
2.194  18.851450
2.193  18.794569
2.192  19.053335
2.191  19.050354
2.190  19.312240
2.189  19.414664
2.188  19.676520
2.187  19.832861
2.186  20.203976
2.185  20.347261
2.184  20.641748
2.183  20.810200
2.182  21.218689
2.181  21.435952
2.180  21.748861
2.179  22.024360
2.178  22.334352
2.177  22.536361
2.176  22.929516
2.175  23.160372
2.174  23.562628
2.173  23.758144
2.172  24.077344
2.171  24.224438
2.170  24.536723
2.169  24.786875
2.168  25.076398
2.167  25.244649
2.166  25.578011
2.165  25.672389
2.164  25.973582
2.163  26.088099
2.162  26.352745
2.161  26.465573
2.160  26.664208
2.159  26.808641
2.158  26.985224
2.157  27.123719
2.156  27.312258
2.155  27.318349
2.154  27.483923
2.153  27.514997
2.152  27.738413
2.151  27.712447
2.150  27.830324
2.149  27.871968
2.148  27.942848
2.147  27.953789
2.146  28.053948
2.145  28.049510
2.144  28.183710
2.143  28.155313
2.142  28.268500
2.141  28.229081
2.140  28.369472
2.139  28.290850
2.138  28.328537
2.137  28.322623
2.136  28.391748
2.135  28.342243
2.134  28.395146
2.133  28.371213
2.132  28.346145
2.131  28.308972
2.130  28.314641
2.129  28.295276
2.128  28.360952
2.127  28.283453
2.126  28.288051
2.125  28.235968
2.124  28.301128
2.123  28.187890
2.122  28.239355
2.121  28.226988
2.120  28.235313
2.119  28.202889
2.118  28.197338
2.117  28.194765
2.116  28.240335
2.115  28.209209
2.114  28.276387
2.113  28.199417
2.112  28.248400
2.111  28.290800
2.110  28.304824
2.109  28.307876
2.108  28.389420
2.107  28.371216
2.106  28.416676
2.105  28.451736
2.104  28.548930
2.103  28.540909
2.102  28.596556
2.101  28.621630
2.100  28.635363
2.099  28.706797
2.098  28.812703
2.097  28.836779
2.096  28.912827
2.095  28.982909
2.094  29.027381
2.093  29.057089
2.092  29.140961
2.091  29.191783
2.090  29.238651
2.089  29.221079
2.088  29.313344
2.087  29.384257
2.086  29.430104
2.085  29.464851
2.084  29.513635
2.083  29.544714
2.082  29.565955
2.081  29.558473
2.080  29.616926
2.079  29.637156
2.078  29.663350
2.077  29.686220
2.076  29.666971
2.075  29.710045
2.074  29.751235
2.073  29.742696
2.072  29.728259
2.071  29.759049
2.070  29.802579
2.069  29.782284
2.068  29.784791
2.067  29.815513
2.066  29.800446
2.065  29.815301
2.064  29.799171
2.063  29.845410
2.062  29.838494
2.061  29.820441
2.060  29.891452
2.059  29.866969
2.058  29.820012
2.057  29.856832
2.056  29.858430
2.055  29.847025
2.054  29.834522
2.053  29.870622
2.052  29.858188
2.051  29.850386
2.050  29.827329
2.049  29.818979
2.048  29.824577
2.047  29.882015
2.046  29.896145
2.045  29.921528
2.044  29.902967
2.043  29.917336
2.042  29.886187
2.041  29.867694
2.040  29.875434
2.039  29.913663
2.038  29.894647
2.037  29.921584
2.036  29.893699
2.035  29.912209
2.034  29.910653
2.033  29.935298
2.032  29.904073
2.031  29.906203
2.030  29.889096
2.029  29.927007
2.028  29.912906
2.027  29.962404
2.026  29.940691
2.025  29.922181
2.024  29.922570
2.023  29.956589
2.022  29.936364
2.021  29.939114
2.020  29.898379
2.019  29.914235
2.018  29.907853
2.017  29.934626
2.016  29.919721
2.015  30.005151
2.014  29.955583
2.013  30.007476
2.012  30.009399
2.011  29.998735
2.010  29.940562
2.009  29.956347
2.008  29.886509
2.007  30.040828
2.006  29.923905
2.005  29.959259
2.004  29.926553
2.003  29.954045
2.002  29.943023
2.001  29.986860
2.000  29.949555
1.999  30.011195
1.998  29.909552
1.997  29.986846
1.996  29.932983
1.995  29.928356
1.994  29.953467
1.993  29.978188
1.992  29.914617
1.991  30.001245
1.990  29.961995
1.989  30.012357
1.988  30.017101
1.987  30.060258
1.986  29.938141
1.985  30.013325
1.984  29.959966
1.983  30.088128
1.982  30.011332
1.981  29.966193
1.980  30.028213
1.979  30.051212
1.978  30.036718
1.977  30.037161
1.976  30.084414
1.975  30.112207
1.974  30.091755
1.973  30.190098
1.972  30.055114
1.971  30.194457
1.970  30.114939
1.969  30.170010
1.968  30.106615
1.967  30.222301
1.966  30.138355
1.965  30.254053
1.964  30.186292
1.963  30.318261
1.962  30.188099
1.961  30.320171
1.960  30.273503
1.959  30.321045
1.958  30.317971
1.957  30.377935
1.956  30.377711
1.955  30.463024
1.954  30.343216
1.953  30.500269
1.952  30.465810
1.951  30.519059
1.950  30.482077
1.949  30.542173
1.948  30.490743
1.947  30.645737
1.946  30.597917
1.945  30.641990
1.944  30.679043
1.943  30.694765
1.942  30.658077
1.941  30.762816
1.940  30.668016
1.939  30.801441
1.938  30.718206
1.937  30.824487
1.936  30.815913
1.935  30.871364
1.934  30.831959
1.933  30.928349
1.932  30.877959
1.931  30.973743
1.930  30.912515
1.929  30.950766
1.928  30.875136
1.927  31.091108
1.926  30.784631
1.925  31.045586
1.924  30.955342
1.923  30.993504
1.922  30.899254
1.921  30.939849
1.920  30.857426
1.919  30.954449
1.918  30.803006
1.917  30.896604
1.916  30.807140
1.915  30.858917
1.914  30.722403
1.913  30.774384
1.912  30.773316
1.911  30.736990
1.910  30.750494
1.909  30.676954
1.908  30.563407
1.907  30.639354
1.906  30.672613
1.905  30.722627
1.904  30.675274
1.903  30.661712
1.902  30.628523
1.901  30.593337
1.900  30.515246
1.899  30.505495
1.898  30.480580
1.897  30.562504
1.896  30.381911
1.895  30.379237
1.894  30.354694
1.893  30.460375
1.892  30.336983
1.891  30.377755
1.890  30.341163
1.889  30.313471
1.888  30.253986
1.887  30.350585
1.886  30.255987
1.885  30.297087
1.884  30.230705
1.883  30.221873
1.882  30.251841
1.881  30.262776
1.880  30.143179
1.879  30.182702
1.878  30.283326
1.877  30.304040
1.876  30.212131
1.875  30.403486
1.874  30.311233
1.873  30.417527
1.872  30.362176
1.871  30.363395
1.870  30.347775
1.869  30.349993
1.868  30.296301
1.867  30.238488
1.866  30.152409
1.865  30.173962
1.864  30.110964
1.863  30.169904
1.862  30.073068
1.861  30.122291
1.860  30.073108
1.859  30.080395
1.858  30.011354
1.857  30.058738
1.856  30.032559
1.855  30.054635
1.854  29.975571
1.853  29.982872
1.852  29.955813
1.851  29.967938
1.850  29.926670
1.849  29.973778
1.848  29.887996
1.847  29.927835
1.846  29.887668
1.845  29.880859
1.844  29.879986
1.843  29.893405
1.842  29.828930
1.841  29.931729
1.840  29.841545
1.839  29.880635
1.838  29.860751
1.837  29.816277
1.836  29.795356
1.835  29.860614
1.834  29.847747
1.833  29.818474
1.832  29.785247
1.831  29.798769
1.830  29.823867
1.829  29.862053
1.828  29.812313
1.827  29.817761
1.826  29.795577
1.825  29.785577
1.824  29.797601
1.823  29.787995
1.822  29.758521
1.821  29.805952
1.820  29.819039
1.819  29.841545
1.818  29.801432
1.817  29.838613
1.816  29.841858
1.815  29.864903
1.814  29.801876
1.813  29.797130
1.812  29.783204
1.811  29.781914
1.810  29.765428
1.809  29.824422
1.808  29.810735
1.807  29.773223
1.806  29.805156
1.805  29.810846
1.804  29.794326
1.803  29.788010
1.802  29.806326
1.801  29.807962
1.800  29.785576
1.799  29.797911
1.798  29.764421
1.797  29.789252
1.796  29.774348
1.795  29.750270
1.794  29.761874
1.793  29.810151
1.792  29.815161
1.791  29.801418
1.790  29.788992
1.789  29.771861
1.788  29.796106
1.787  29.811047
1.786  29.807166
1.785  29.789957
1.784  29.793974
1.783  29.790721
1.782  29.747699
1.781  29.729406
1.780  29.744647
1.779  29.795855
1.778  29.761268
1.777  29.739948
1.776  29.729653
1.775  29.702238
1.774  29.744923
1.773  29.749923
1.772  29.766307
1.771  29.754848
1.770  29.731623
1.769  29.749338
1.768  29.790413
1.767  29.766553
1.766  29.750674
1.765  29.770086
1.764  29.799940
1.763  29.741109
1.762  29.717266
1.761  29.747862
1.760  29.752817
1.759  29.696383
1.758  29.720167
1.757  29.723489
1.756  29.754170
1.755  29.717432
1.754  29.751753
1.753  29.683770
1.752  29.739366
1.751  29.756264
1.750  29.712373
1.749  29.694400
1.748  29.756208
1.747  29.728070
1.746  29.757442
1.745  29.709842
1.744  29.790561
1.743  29.751320
1.742  29.746779
1.741  29.723410
1.740  29.766488
1.739  29.749183
1.738  29.729971
1.737  29.708716
1.736  29.771180
1.735  29.754483
1.734  29.720456
1.733  29.687427
1.732  29.768319
1.731  29.736999
1.730  29.752717
1.729  29.689629
1.728  29.733471
1.727  29.733997
1.726  29.725666
1.725  29.732143
1.724  29.697713
1.723  29.639159
1.722  29.695434
1.721  29.682183
1.720  29.691471
1.719  29.683855
1.718  29.677135
1.717  29.706654
1.716  29.628323
1.715  29.640758
1.714  29.667937
1.713  29.679251
1.712  29.599411
1.711  29.555347
1.710  29.611281
1.709  29.583298
1.708  29.655778
1.707  29.591962
1.706  29.631712
1.705  29.564818
1.704  29.574732
1.703  29.546529
1.702  29.589280
1.701  29.537773
1.700  29.542513
1.699  29.513203
1.698  29.527256
1.697  29.465101
1.696  29.546873
1.695  29.453276
1.694  29.492867
1.693  29.452484
1.692  29.524392
1.691  29.449134
1.690  29.546374
1.689  29.420895
1.688  29.389743
1.687  29.363745
1.686  29.424501
1.685  29.369616
1.684  29.456935
1.683  29.313928
1.682  29.374686
1.681  29.406899
1.680  29.383948
1.679  29.309080
1.678  29.441274
1.677  29.330840
1.676  29.389537
1.675  29.270456
1.674  29.355176
1.673  29.262369
1.672  29.338790
1.671  29.235904
1.670  29.255987
1.669  29.327892
1.668  29.107931
1.667  29.202269
1.666  29.261193
1.665  29.138766
1.664  29.212600
1.663  29.138103
1.662  29.155532
1.661  29.180186
1.660  29.153756
1.659  29.152430
1.658  29.212045
1.657  29.103101
1.656  29.181536
1.655  29.114306
1.654  29.177569
1.653  29.090650
1.652  29.112558
1.651  29.053761
1.650  29.118439
1.649  28.999344
1.648  29.073502
1.647  29.089052
1.646  29.062177
1.645  29.104526
1.644  29.095153
1.643  29.055615
1.642  29.120287
1.641  28.858952
1.640  29.133085
1.639  28.947357
1.638  29.120973
1.637  28.982959
1.636  29.041598
1.635  28.916479
1.634  29.026217
1.633  28.969313
1.632  29.056576
1.631  28.929130
1.630  29.021990
1.629  28.896257
1.628  29.040513
1.627  28.916969
1.626  29.040303
1.625  28.881853
1.624  28.980780
1.623  28.926510
1.622  28.928075
1.621  28.847828
1.620  28.909844
1.619  28.926888
1.618  28.981683
1.617  28.914762
1.616  28.950291
1.615  28.849039
1.614  28.968260
1.613  28.852891
1.612  28.874956
1.611  28.865811
1.610  28.876778
1.609  28.780067
1.608  28.939031
1.607  28.817220
1.606  28.860817
1.605  28.777659
1.604  28.899536
1.603  28.799368
1.602  28.847351
1.601  28.795733
1.600  28.861533
1.599  28.785214
1.598  28.913457
1.597  28.771313
1.596  28.869375
1.595  28.744360
1.594  28.824428
1.593  28.751791
1.592  28.839588
1.591  28.725211
1.590  28.816743
1.589  28.810369
1.588  28.804932
1.587  28.759955
1.586  28.855964
1.585  28.810404
1.584  28.793676
1.583  28.744569
1.582  28.806292
1.581  28.767442
1.580  28.821493
1.579  28.739905
1.578  28.775151
1.577  28.670265
1.576  28.794171
1.575  28.716630
1.574  28.738069
1.573  28.660639
1.572  28.752468
1.571  28.713925
1.570  28.762848
1.569  28.686760
1.568  28.725151
1.567  28.669200
1.566  28.708226
1.565  28.604044
1.564  28.657722
1.563  28.611680
1.562  28.660709
1.561  28.571249
1.560  28.593558
1.559  28.610414
1.558  28.581097
1.557  28.559135
1.556  28.624746
1.555  28.591140
1.554  28.579655
1.553  28.526828
1.552  28.633547
1.551  28.596636
1.550  28.594832
1.549  28.511046
1.548  28.502056
1.547  28.488651
1.546  28.547380
1.545  28.513069
1.544  28.506600
1.543  28.452117
1.542  28.454866
1.541  28.481056
1.540  28.506944
1.539  28.437937
1.538  28.432521
1.537  28.427716
1.536  28.473180
1.535  28.449568
1.534  28.441172
1.533  28.391284
1.532  28.395316
1.531  28.375582
1.530  28.372196
1.529  28.325444
1.528  28.376278
1.527  28.399181
1.526  28.376739
1.525  28.318757
1.524  28.319311
1.523  28.304168
1.522  28.338856
1.521  28.311986
1.520  28.335565
1.519  28.257003
1.518  28.261118
1.517  28.249322
1.516  28.228856
1.515  28.228401
1.514  28.248432
1.513  28.235488
1.512  28.216510
1.511  28.195052
1.510  28.209667
1.509  28.175248
1.508  28.176380
1.507  28.170483
1.506  28.181359
1.505  28.209749
1.504  28.231228
1.503  28.220493
1.502  28.157637
1.501  28.149272
1.500  28.178078
1.499  28.154637
1.498  28.188107
1.497  28.154990
1.496  28.114405
1.495  28.109899
1.494  28.101714
1.493  28.135809
1.492  28.125820
1.491  28.080285
1.490  28.076286
1.489  28.066167
1.488  28.023176
1.487  28.052145
1.486  28.072975
1.485  28.058691
1.484  27.983027
1.483  27.989897
1.482  28.007766
1.481  28.018488
1.480  27.962887
1.479  28.005106
1.478  27.964779
1.477  27.959833
1.476  27.945414
1.475  27.972222
1.474  27.935013
1.473  27.893959
1.472  27.917543
1.471  27.896215
1.470  27.912392
1.469  27.932895
1.468  27.851291
1.467  27.876043
1.466  27.854052
1.465  27.872500
1.464  27.786999
1.463  27.791664
1.462  27.759392
1.461  27.822283
1.460  27.790158
1.459  27.752007
1.458  27.759903
1.457  27.727389
1.456  27.670671
1.455  27.660447
1.454  27.651079
1.453  27.672047
1.452  27.654636
1.451  27.655467
1.450  27.623993
1.449  27.565757
1.448  27.559050
1.447  27.637157
1.446  27.494830
1.445  27.514961
1.444  27.458954
1.443  27.421432
1.442  27.342382
1.441  27.256286
1.440  27.197747
1.439  27.221293
1.438  27.083654
1.437  27.013747
1.436  26.871121
1.435  26.760368
