Name: Grossular Garnet Ca_3Al_2(SiO_4)_3
Type: Mineral
Class: Silicates
Subclass: Nesosilicates
Particle Size: 45-125um
Sample No.: NS-3B
Owner: JPL
Wavelength range: IR
Origin: Mexico, Lake Jaco
Collected by New, David
Description: 





Measurement: Hemispherical reflectance
First Column: X
Second Column: Y
X Units:  Wavelength (micrometers)
Y Units:  Reflectance (percent)
First X Value: 15.3853
Last X Value: 2.00032
Number of X Values: 2256
Additional information: ns03ba.txt
 
15.3853	2.362
15.3397	2.53568
15.2945	2.71027
15.2495	3.05271
15.2048	3.0569
15.1603	2.76811
15.1161	2.96716
15.0722	3.35768
15.0285	3.3729
14.9851	3.60928
14.9419	3.77888
14.8989	3.78854
14.8563	3.87827
14.8138	3.94706
14.7716	4.01935
14.7296	4.08193
14.6879	4.22515
14.6464	4.24054
14.6052	4.22042
14.5641	4.24452
14.5233	4.43351
14.4828	4.71561
14.4424	4.95742
14.4023	5.1521
14.3624	5.10278
14.3227	5.10278
14.2833	5.1369
14.244	5.22202
14.205	5.40364
14.1662	5.49294
14.1276	5.50016
14.0892	5.49554
14.051	5.55631
14.0131	5.38996
13.9753	5.23281
13.9377	5.44088
13.9004	5.72881
13.8632	5.81277
13.8262	5.7148
13.7895	5.76136
13.7529	5.89138
13.7165	5.9582
13.6803	5.82034
13.6443	5.84514
13.6085	5.93948
13.5729	5.97091
13.5374	6.12706
13.5022	6.18569
13.4671	6.22256
13.4322	6.31475
13.3975	6.4081
13.363	6.55507
13.3286	6.53849
13.2944	6.50197
13.2604	6.5681
13.2266	6.6302
13.193	6.58974
13.1595	6.45226
13.1262	6.20024
13.093	6.26802
13.06	6.58859
13.0272	6.87212
12.9946	7.13483
12.9621	7.33128
12.9298	7.21425
12.8976	7.38795
12.8656	7.83304
12.8337	8.03092
12.8021	8.17222
12.7705	8.55159
12.7391	8.79134
12.7079	8.97929
12.6769	9.07328
12.6459	9.41026
12.6152	9.77207
12.5845	9.95576
12.5541	10.3479
12.5238	10.7248
12.4936	11.0212
12.4635	11.3991
12.4337	11.8164
12.4039	12.3498
12.3743	12.9255
12.3448	13.3888
12.3155	13.7834
12.2863	14.4347
12.2573	15.1324
12.2284	15.8297
12.1996	16.5735
12.171	17.2608
12.1425	18.2889
12.1141	19.5243
12.0859	20.6922
12.0578	21.8733
12.0298	23.1672
12.0019	24.3095
11.9742	25.0776
11.9466	25.5429
11.9192	25.6004
11.8918	25.0771
11.8646	24.3222
11.8375	23.6486
11.8106	23.2972
11.7837	23.4184
11.757	23.9903
11.7304	24.9311
11.7039	26.212
11.6776	27.348
11.6513	28.0229
11.6252	28.4511
11.5992	28.6025
11.5733	28.3277
11.5475	27.4934
11.5219	26.2228
11.4963	24.7406
11.4709	22.8954
11.4455	20.7259
11.4203	18.2129
11.3952	15.4666
11.3702	12.5336
11.3454	9.88731
11.3206	7.95799
11.2959	6.8298
11.2714	6.45864
11.2469	6.73046
11.2226	7.38868
11.1983	8.53129
11.1742	10.129
11.1502	12.0514
11.1263	14.3163
11.1024	17.0512
11.0787	20.1396
11.0551	23.2313
11.0316	26.0933
11.0081	28.4715
10.9848	30.1274
10.9616	31.2304
10.9385	31.9496
10.9154	32.4136
10.8925	32.5888
10.8697	32.7059
10.8469	32.6351
10.8243	32.5027
10.8017	32.3128
10.7793	32.1251
10.7569	32.0976
10.7346	32.4523
10.7125	33.1094
10.6904	33.9859
10.6684	34.799
10.6465	35.3358
10.6247	35.689
10.6029	35.8335
10.5813	35.9975
10.5597	36.0546
10.5383	36.0425
10.5169	36.3663
10.4956	36.913
10.4744	37.7568
10.4533	38.8007
10.4323	39.7879
10.4113	40.7499
10.3904	41.6387
10.3697	42.4434
10.349	42.943
10.3284	42.9754
10.3078	42.7834
10.2874	42.4297
10.267	41.9387
10.2467	41.3925
10.2265	40.8285
10.2064	40.2637
10.1863	39.5751
10.1663	38.8411
10.1464	37.9294
10.1266	36.8637
10.1069	35.7325
10.0872	34.4466
10.0676	32.9774
10.0481	31.1623
10.0287	29.177
10.0093	27.1275
9.99005	24.8931
9.97084	22.6189
9.95169	20.3537
9.93263	18.2537
9.91364	16.4537
9.89472	15.0039
9.87587	13.6974
9.8571	12.2912
9.83839	10.8753
9.81976	9.60465
9.80119	8.47027
9.78271	7.48486
9.76428	6.42804
9.74592	5.42556
9.72764	4.63234
9.70943	3.97976
9.69128	3.52364
9.6732	3.0495
9.65518	2.49268
9.63724	1.99574
9.61935	1.67783
9.60155	1.35837
9.5838	1.11266
9.56611	0.864008
9.5485	0.686014
9.53094	0.637516
9.51345	0.553843
9.49604	0.5209
9.47867	0.586441
9.46137	0.40891
9.44414	0.217201
9.42697	0.11464
9.40986	0.0465151
9.39281	0.0771959
9.37583	0.0564529
9.35891	0.115231
9.34204	0.12503
9.32524	0.140392
9.3085	0.161506
9.29182	0.172005
9.27519	0.171709
9.25863	0.0758651
9.24213	-0.00999554
9.22568	0.0963967
9.2093	0.246856
9.19297	0.273919
9.17669	0.206558
9.16048	0.189906
9.14433	0.146284
9.12823	0.249933
9.11218	0.434195
9.0962	0.33535
9.08027	0.184702
9.06439	0.347352
9.04858	0.626052
9.03281	0.503696
9.0171	0.342713
9.00145	0.534595
8.98585	0.613029
8.9703	0.519694
8.9548	0.547184
8.93937	0.604715
8.92398	0.660293
8.90865	0.786485
8.89337	0.949855
8.87814	0.790789
8.86296	0.639731
8.84784	0.652816
8.83277	0.774303
8.81774	0.853523
8.80277	0.92501
8.78786	0.954656
8.77298	1.06277
8.75816	1.14261
8.7434	1.29059
8.72868	1.32073
8.714	1.33657
8.69938	1.4015
8.68481	1.40085
8.67029	1.43442
8.65581	1.52961
8.64139	1.68399
8.62701	1.80906
8.61268	1.86788
8.5984	1.99512
8.58416	1.91413
8.56997	1.70155
8.55583	1.76549
8.54174	1.99887
8.52769	2.24425
8.51368	2.47006
8.49973	2.57524
8.48582	2.61842
8.47195	2.57083
8.45813	2.54802
8.44436	2.65536
8.43062	2.83202
8.41693	2.88906
8.4033	2.87877
8.3897	2.90157
8.37614	2.88909
8.36264	2.97338
8.34917	2.96218
8.33574	3.0109
8.32236	3.15934
8.30903	3.30975
8.29573	3.35118
8.28248	3.35702
8.26927	3.61737
8.2561	3.73032
8.24298	3.69051
8.2299	3.80189
8.21685	3.84642
8.20385	3.86059
8.19089	4.07369
8.17797	4.25609
8.16509	4.13964
8.15225	4.12514
8.13946	4.18784
8.1267	4.28169
8.11398	4.37264
8.10131	4.56796
8.08867	4.67081
8.07606	4.63354
8.0635	4.7294
8.05099	4.79705
8.0385	4.77573
8.02606	4.88138
8.01366	4.96047
8.00129	4.94728
7.98896	5.01709
7.97667	5.14595
7.96442	5.11398
7.9522	5.03971
7.94002	5.12222
7.92788	5.15014
7.91578	5.07589
7.90371	5.10397
7.89168	5.1224
7.87969	5.18885
7.86773	5.22154
7.85581	5.15104
7.84392	5.13695
7.83207	5.20277
7.82026	5.30631
7.80849	5.35506
7.79674	5.41326
7.78503	5.47043
7.77337	5.43492
7.76173	5.46599
7.75012	5.57823
7.73856	5.69149
7.72703	5.78338
7.71553	5.8024
7.70406	5.81724
7.69263	5.87313
7.68123	5.95349
7.66987	6.08515
7.65855	6.15321
7.64725	6.14975
7.63598	6.15576
7.62475	6.23984
7.61356	6.3773
7.60239	6.42385
7.59126	6.42718
7.58017	6.43433
7.5691	6.39221
7.55806	6.40901
7.54707	6.46419
7.5361	6.49159
7.52516	6.51855
7.51425	6.51176
7.50338	6.48875
7.49253	6.52252
7.48172	6.62507
7.47094	6.66947
7.46019	6.6604
7.44947	6.78356
7.43879	6.93479
7.42813	7.01818
7.4175	7.01308
7.4069	7.01418
7.39634	7.08651
7.3858	7.2314
7.37529	7.31355
7.36482	7.34413
7.35437	7.35937
7.34396	7.42875
7.33357	7.53431
7.32321	7.52319
7.31288	7.53434
7.30258	7.56009
7.29231	7.48634
7.28207	7.47566
7.27185	7.54409
7.26167	7.59763
7.25152	7.57997
7.24139	7.56216
7.23129	7.66534
7.22122	7.77378
7.21117	7.91996
7.20116	7.95363
7.19117	7.91896
7.18121	8.02238
7.17128	8.18851
7.16137	8.20298
7.1515	8.23437
7.14164	8.31131
7.13182	8.31931
7.12203	8.40377
7.11225	8.46112
7.10251	8.55094
7.0928	8.6407
7.08311	8.7562
7.07344	8.88887
7.06381	9.04118
7.0542	9.25348
7.04461	9.47302
7.03506	9.49889
7.02552	9.59364
7.01601	9.58868
7.00653	9.59474
6.99708	9.75844
6.98765	9.8504
6.97824	9.91386
6.96886	10.0629
6.95951	10.3241
6.95018	10.2232
6.94087	10.2137
6.9316	10.3719
6.92234	10.5637
6.91311	10.8919
6.90391	11.085
6.89473	11.1289
6.88557	11.3871
6.87644	11.8394
6.86733	12.6289
6.85824	12.8651
6.84918	12.7087
6.84015	12.9204
6.83114	13.3651
6.82215	13.6403
6.81319	13.7687
6.80424	14.1131
6.79532	14.6996
6.78643	15.0169
6.77756	14.9898
6.76871	14.9792
6.75989	15.0152
6.75109	15.2066
6.74231	15.3922
6.73355	15.5455
6.72482	15.7334
6.71611	15.9451
6.70742	16.0601
6.69875	15.9791
6.69011	16.1501
6.68149	16.546
6.67289	16.6998
6.66431	16.6329
6.65576	16.6799
6.64722	17.2909
6.63871	18.0316
6.63022	17.8485
6.62175	17.487
6.61331	17.5687
6.60488	17.6758
6.59648	17.9092
6.5881	18.1307
6.57974	18.5286
6.5714	18.9672
6.56308	18.7269
6.55478	18.7467
6.54651	18.8675
6.53825	18.9863
6.53001	19.3154
6.5218	19.7743
6.51361	19.7544
6.50544	20.0346
6.49729	21.0159
6.48915	21.2582
6.48104	20.8474
6.47295	20.5796
6.46488	20.3702
6.45683	20.3713
6.4488	20.3905
6.44079	20.5241
6.4328	20.75
6.42482	20.9569
6.41687	21.7542
6.40894	21.4525
6.40103	20.3996
6.39314	20.1457
6.38526	20.1859
6.37741	20.3459
6.36957	20.4918
6.36176	20.2557
6.35396	20.3082
6.34618	20.7587
6.33843	20.4956
6.33069	20.0598
6.32297	20.0421
6.31527	19.9637
6.30758	19.8969
6.29992	19.8131
6.29227	19.7721
6.28465	19.8026
6.27704	19.7788
6.26945	19.7132
6.26188	19.6351
6.25432	19.4829
6.24679	19.2276
6.23927	19.0108
6.23177	18.8514
6.22429	18.6309
6.21683	18.4511
6.20938	18.1869
6.20195	17.7768
6.19454	17.5802
6.18715	17.7427
6.17978	17.2523
6.17242	16.4436
6.16508	16.1413
6.15776	15.8131
6.15045	15.2284
6.14317	14.7941
6.1359	14.2457
6.12864	13.7122
6.12141	13.4471
6.11419	13.2588
6.10699	12.5165
6.0998	11.7036
6.09263	11.0852
6.08549	10.6624
6.07835	10.5467
6.07123	10.2473
6.06413	9.67075
6.05705	9.5279
6.04998	9.60397
6.04293	8.88851
6.0359	8.22846
6.02888	7.96049
6.02187	7.7516
6.01489	7.53812
6.00792	7.27236
6.00096	7.05627
5.99403	6.99185
5.98711	6.82516
5.9802	6.45413
5.97331	6.26666
5.96644	6.12311
5.95958	5.89935
5.95274	5.81072
5.94591	5.82501
5.9391	6.01777
5.9323	5.94525
5.92552	5.63367
5.91876	5.48844
5.91201	5.46273
5.90528	5.51104
5.89856	5.67954
5.89186	5.61718
5.88517	5.63169
5.8785	5.7215
5.87184	5.67711
5.8652	5.77154
5.85857	5.8197
5.85196	5.86133
5.84536	5.88881
5.83878	5.94176
5.83221	6.09718
5.82566	6.32696
5.81912	6.34853
5.81259	6.1882
5.80608	6.25064
5.79959	6.37895
5.79311	6.44483
5.78665	6.53654
5.78019	6.66069
5.77376	6.90359
5.76734	7.27694
5.76093	7.28557
5.75453	7.29465
5.74815	7.54601
5.74179	7.63941
5.73543	7.72628
5.7291	7.88845
5.72277	8.14306
5.71646	8.36034
5.71017	8.50094
5.70389	8.5821
5.69762	8.72834
5.69136	8.9412
5.68513	9.05055
5.6789	9.20568
5.67268	9.48619
5.66648	9.57755
5.6603	9.79567
5.65413	10.0538
5.64797	10.3256
5.64182	10.5858
5.63569	10.5109
5.62957	10.5189
5.62347	10.5891
5.61737	10.6265
5.61129	10.6678
5.60522	10.7777
5.59917	10.8687
5.59313	10.8485
5.5871	10.9788
5.58109	11.2754
5.57509	11.3244
5.5691	11.1768
5.56312	11.195
5.55716	11.246
5.55121	11.2195
5.54528	11.147
5.53935	11.235
5.53344	11.3613
5.52754	11.4214
5.52166	11.3798
5.51578	11.3582
5.50992	11.359
5.50407	11.3366
5.49823	11.2571
5.49241	11.1813
5.4866	11.1849
5.4808	11.2788
5.47501	11.3424
5.46923	11.4272
5.46347	11.5665
5.45772	11.5535
5.45198	11.5518
5.44625	11.6627
5.44054	11.8497
5.43484	12.0707
5.42914	12.2993
5.42347	12.5821
5.4178	12.7314
5.41214	12.7829
5.4065	12.9129
5.40087	13.0718
5.39525	13.1819
5.38964	13.3179
5.38404	13.5494
5.37846	13.7963
5.37288	14.0634
5.36732	14.2881
5.36177	14.5329
5.35623	14.8327
5.35071	15.164
5.34519	15.3467
5.33968	15.5162
5.33419	15.8099
5.32871	16.1134
5.32324	16.4327
5.31778	16.8931
5.31233	17.4142
5.30689	17.8846
5.30147	18.3576
5.29605	18.9362
5.29065	19.5483
5.28525	20.0863
5.27987	20.6543
5.2745	21.1629
5.26914	21.5986
5.26379	22.0297
5.25845	22.4941
5.25312	22.9365
5.24781	23.2837
5.2425	23.5208
5.23721	23.7597
5.23192	23.967
5.22665	24.228
5.22138	24.4986
5.21613	24.8151
5.21089	24.8597
5.20566	24.8969
5.20044	25.1294
5.19522	25.2256
5.19002	25.2992
5.18483	25.4619
5.17965	25.5695
5.17448	25.6646
5.16933	25.7879
5.16418	25.9153
5.15904	26.0641
5.15391	26.2445
5.14879	26.4157
5.14368	26.6009
5.13859	26.7147
5.1335	26.8552
5.12842	26.9844
5.12335	27.1798
5.1183	27.3359
5.11325	27.4592
5.10821	27.5811
5.10318	27.7649
5.09817	27.8838
5.09316	27.9496
5.08816	28.0501
5.08317	28.2148
5.07819	28.2923
5.07322	28.401
5.06826	28.539
5.06331	28.6351
5.05837	28.6535
5.05344	28.6347
5.04852	28.713
5.04361	28.8744
5.03871	28.9872
5.03382	29.1353
5.02894	29.29
5.02406	29.4583
5.0192	29.5834
5.01435	29.643
5.0095	29.7172
5.00467	29.8191
4.99984	29.9227
4.99502	30.0531
4.99021	30.1711
4.98542	30.3562
4.98063	30.5269
4.97585	30.6079
4.97108	30.7241
4.96632	30.8863
4.96156	31.0482
4.95682	31.1758
4.95209	31.2131
4.94736	31.2798
4.94264	31.3517
4.93794	31.4909
4.93324	31.5954
4.92855	31.6582
4.92387	31.7356
4.9192	31.8357
4.91453	31.863
4.90988	31.9494
4.90524	32.0725
4.9006	32.1209
4.89597	32.2197
4.89135	32.313
4.88674	32.349
4.88214	32.4166
4.87755	32.5332
4.87296	32.6366
4.86839	32.7452
4.86382	32.7832
4.85926	32.812
4.85471	32.89
4.85017	32.9315
4.84564	33.0377
4.84111	33.0975
4.8366	33.1467
4.83209	33.2668
4.82759	33.3737
4.8231	33.4626
4.81862	33.5482
4.81415	33.6518
4.80968	33.7303
4.80522	33.8107
4.80077	33.898
4.79633	33.9676
4.7919	34.03
4.78747	34.0681
4.78306	34.1787
4.77865	34.3247
4.77425	34.4406
4.76986	34.5003
4.76547	34.5672
4.7611	34.6214
4.75673	34.7271
4.75237	34.8577
4.74802	34.9317
4.74367	35.0283
4.73934	35.1058
4.73501	35.1674
4.73069	35.1897
4.72638	35.2154
4.72207	35.2897
4.71777	35.3187
4.71348	35.4242
4.7092	35.4926
4.70493	35.5601
4.70066	35.6037
4.69641	35.5942
4.69216	35.652
4.68791	35.7845
4.68368	35.8822
4.67945	35.9535
4.67523	35.9849
4.67102	35.9276
4.66682	35.9736
4.66262	36.0557
4.65843	36.1409
4.65425	36.2236
4.65007	36.2534
4.64591	36.2869
4.64175	36.3114
4.6376	36.3332
4.63345	36.3984
4.62932	36.4533
4.62519	36.5001
4.62106	36.4714
4.61695	36.4174
4.61284	36.4687
4.60874	36.5716
4.60465	36.6184
4.60056	36.6387
4.59648	36.6819
4.59241	36.7168
4.58835	36.6921
4.58429	36.6626
4.58024	36.7092
4.5762	36.7237
4.57216	36.7354
4.56814	36.7219
4.56411	36.8157
4.5601	36.8187
4.55609	36.7569
4.55209	36.8299
4.5481	36.953
4.54411	36.9635
4.54013	36.9687
4.53616	36.9536
4.5322	36.8957
4.52824	36.8937
4.52429	36.9326
4.52034	36.9049
4.51641	36.9196
4.51247	36.9636
4.50855	36.9721
4.50463	36.9637
4.50072	36.9792
4.49682	36.9941
4.49292	37.0416
4.48903	37.0655
4.48515	37.014
4.48127	37.0311
4.4774	37.0359
4.47354	37.001
4.46968	36.9935
4.46584	36.9375
4.46199	36.8939
4.45815	36.9291
4.45432	36.9473
4.4505	36.9194
4.44668	36.9663
4.44287	37.0249
4.43907	36.9649
4.43527	36.883
4.43148	36.8833
4.4277	36.87
4.42392	36.8296
4.42015	36.8613
4.41638	36.8733
4.41262	36.8344
4.40887	36.8227
4.40513	36.8357
4.40139	36.8418
4.39765	36.8048
4.39393	36.7562
4.39021	36.7714
4.38649	36.7716
4.38278	36.7902
4.37908	36.7965
4.37539	36.7624
4.3717	36.7443
4.36801	36.7293
4.36434	36.6921
4.36067	36.6722
4.357	36.7142
4.35335	36.6736
4.34969	36.6552
4.34605	36.6469
4.34241	36.6542
4.33877	36.6674
4.33514	36.6365
4.33152	36.5829
4.32791	36.5452
4.3243	36.4366
4.32069	36.4098
4.3171	36.4737
4.31351	36.4556
4.30992	36.4241
4.30634	36.3919
4.30277	36.3802
4.2992	36.3512
4.29564	36.2935
4.29208	36.2137
4.28853	36.166
4.28499	36.1832
4.28145	36.1437
4.27792	36.0722
4.27439	36.0401
4.27087	36.0284
4.26735	36.026
4.26384	36.0398
4.26034	36.0073
4.25684	35.9427
4.25335	35.8674
4.24986	35.82
4.24638	35.7993
4.24291	35.75
4.23944	35.6384
4.23598	35.5017
4.23252	35.4804
4.22906	35.481
4.22562	35.4535
4.22218	35.4071
4.21874	35.3253
4.21531	35.3163
4.21189	35.3212
4.20847	35.2706
4.20506	35.2053
4.20165	35.1448
4.19825	35.0972
4.19485	35.1236
4.19146	35.1046
4.18807	34.9956
4.18469	34.9343
4.18132	34.9139
4.17795	34.9091
4.17458	34.8624
4.17123	34.7299
4.16787	34.6891
4.16453	34.7456
4.16118	34.7136
4.15785	34.6261
4.15451	34.5968
4.15119	34.5595
4.14787	34.4935
4.14455	34.474
4.14124	34.5171
4.13794	34.5285
4.13464	34.4144
4.13134	34.2918
4.12805	34.2779
4.12477	34.1628
4.12149	34.0058
4.11822	33.9752
4.11495	34.0008
4.11168	33.9665
4.10843	33.8972
4.10517	33.829
4.10192	33.7276
4.09868	33.6177
4.09545	33.5529
4.09221	33.4556
4.08899	33.3916
4.08576	33.346
4.08255	33.2391
4.07933	33.1302
4.07613	33.0506
4.07292	33.0141
4.06973	32.9893
4.06654	32.899
4.06335	32.8413
4.06017	32.8372
4.05699	32.7798
4.05382	32.6663
4.05065	32.5803
4.04749	32.6015
4.04433	32.5791
4.04118	32.5116
4.03803	32.4495
4.03489	32.4244
4.03175	32.508
4.02862	32.4963
4.02549	32.4512
4.02237	32.4925
4.01925	32.5513
4.01614	32.5621
4.01303	32.5805
4.00993	32.6171
4.00683	32.6453
4.00373	32.69
4.00064	32.7754
3.99756	32.8815
3.99448	32.9803
3.9914	32.9819
3.98833	33.0302
3.98527	33.1241
3.98221	33.2128
3.97915	33.3514
3.9761	33.445
3.97305	33.4852
3.97001	33.5737
3.96697	33.6803
3.96394	33.753
3.96091	33.8189
3.95789	33.8557
3.95487	33.8799
3.95186	34.0166
3.94885	34.1214
3.94584	34.2133
3.94284	34.2854
3.93984	34.3123
3.93685	34.3418
3.93386	34.3547
3.93088	34.3778
3.9279	34.4805
3.92493	34.5392
3.92196	34.5818
3.919	34.654
3.91604	34.6997
3.91308	34.6691
3.91013	34.7408
3.90718	34.8185
3.90424	34.8193
3.9013	34.8181
3.89837	34.8598
3.89544	34.9772
3.89252	35.0223
3.8896	34.9857
3.88668	34.9975
3.88377	34.9899
3.88086	35.0363
3.87796	35.0317
3.87506	35.0115
3.87217	35.0265
3.86928	35.1306
3.86639	35.239
3.86351	35.2333
3.86064	35.1546
3.85776	35.1855
3.8549	35.2826
3.85203	35.3599
3.84917	35.351
3.84631	35.3448
3.84346	35.3436
3.84062	35.3826
3.83777	35.3978
3.83494	35.4577
3.8321	35.4733
3.82927	35.5733
3.82644	35.6573
3.82362	35.6775
3.82081	35.7013
3.81799	35.736
3.81518	35.7517
3.81238	35.7487
3.80958	35.8607
3.80678	36.0166
3.80399	36.0711
3.8012	36.123
3.79841	36.1456
3.79563	36.2341
3.79286	36.2905
3.79008	36.305
3.78731	36.3715
3.78455	36.4426
3.78179	36.5296
3.77903	36.6291
3.77628	36.7409
3.77353	36.8205
3.77079	36.8803
3.76805	36.9607
3.76531	37.1281
3.76258	37.1994
3.75985	37.1787
3.75713	37.2267
3.7544	37.3511
3.75169	37.4412
3.74898	37.5665
3.74627	37.6696
3.74356	37.7548
3.74086	37.8914
3.73816	37.9801
3.73547	38.1017
3.73278	38.2953
3.7301	38.4354
3.72741	38.4767
3.72474	38.5581
3.72206	38.7312
3.71939	38.8247
3.71673	38.8501
3.71406	38.9604
3.71141	39.0714
3.70875	39.1976
3.7061	39.3239
3.70345	39.3652
3.70081	39.4281
3.69817	39.5192
3.69553	39.616
3.6929	39.6969
3.69027	39.8142
3.68765	39.9212
3.68503	39.9892
3.68241	40.0571
3.6798	40.1515
3.67719	40.2321
3.67458	40.2581
3.67198	40.2561
3.66938	40.2387
3.66678	40.3136
3.66419	40.3995
3.66161	40.3768
3.65902	40.3838
3.65644	40.4674
3.65387	40.5098
3.65129	40.4716
3.64872	40.4624
3.64616	40.4946
3.64359	40.5185
3.64103	40.5042
3.63848	40.4827
3.63593	40.4694
3.63338	40.4761
3.63084	40.5092
3.6283	40.4973
3.62576	40.4617
3.62322	40.3802
3.62069	40.2591
3.61817	40.2316
3.61564	40.2279
3.61312	40.1871
3.61061	40.2252
3.6081	40.2592
3.60559	40.122
3.60308	40.0354
3.60058	40.0193
3.59808	40.0064
3.59558	40.0094
3.59309	39.9896
3.59061	39.9168
3.58812	39.8654
3.58564	39.8915
3.58316	39.8558
3.58069	39.8109
3.57822	39.7484
3.57575	39.6926
3.57328	39.7253
3.57082	39.7034
3.56836	39.6489
3.56591	39.6444
3.56346	39.6762
3.56101	39.7266
3.55857	39.7373
3.55613	39.6598
3.55369	39.6166
3.55126	39.6228
3.54883	39.6517
3.5464	39.6075
3.54397	39.5871
3.54155	39.6251
3.53914	39.5803
3.53672	39.6046
3.53431	39.6432
3.5319	39.6395
3.5295	39.5879
3.5271	39.5735
3.5247	39.6332
3.52231	39.7266
3.51991	39.7592
3.51753	39.7346
3.51514	39.7603
3.51276	39.7827
3.51038	39.6833
3.50801	39.6921
3.50563	39.7864
3.50327	39.8618
3.5009	39.9151
3.49854	39.9668
3.49618	40.0283
3.49382	40.0723
3.49147	40.0503
3.48912	40.0586
3.48677	40.1506
3.48443	40.2331
3.48209	40.2395
3.47975	40.2091
3.47742	40.227
3.47509	40.3247
