Name: Garnetiferous Mica Schist
Type: Rock
Class: Metamorphic
Subclass:  Schist 
Particle Size: Solid surface
Sample No.: Ward84.txt
Owner: JPL
Wavelength range:  IR 
Origin: Ward's Collection of American Rocks.  Sample locality - Gassets, Windsor County, Vermont.  Collected by - JPL.
Collected by:  Ward's Natural Science
Description: The hand specimen is a porphyroblastic, schistose rock
composed of scaly, silvery mica, quartz and garnet with biotite and
some staurolite and occasional kyanite. Geologic age - Upper Cambrian(?)


Measurement: Hemispherical reflectance
First Column: X
Second Column: Y
X Units: Wavelength (micrometers)
Y Units: Reflectance (percent)
First X Value: 15.3871
Last X Value: 1.9998
Number of X Values: 2257
Additional information: None

15.3871   1.89988
15.3416   2.20654
15.2964   2.27384
15.2514   2.17565
15.2066   2.27746
15.1622   2.70041
15.1180   2.85739
15.0740   2.77692
15.0303   2.66009
14.9869   2.43355
14.9437   2.56470
14.9008   3.05356
14.8581   3.20927
14.8156   2.99469
14.7734   3.13068
14.7314   3.20705
14.6897   3.23976
14.6482   3.01988
14.6069   3.10138
14.5659   3.41719
14.5251   3.60795
14.4845   3.65049
14.4442   3.43811
14.4041   3.29084
14.3642   3.33374
14.3245   3.29516
14.2850   3.21943
14.2458   3.27363
14.2068   3.53452
14.1679   3.48694
14.1293   3.44545
14.0909   3.62210
14.0528   3.65809
14.0148   3.62594
13.9770   3.79528
13.9394   4.02885
13.9021   3.95475
13.8649   3.74161
13.8279   3.77782
13.7911   3.94268
13.7546   3.96637
13.7182   4.23989
13.6820   4.26992
13.6460   4.15569
13.6101   4.24987
13.5745   4.45976
13.5391   4.44733
13.5038   4.32656
13.4687   4.30073
13.4339   4.33969
13.3991   4.32860
13.3646   4.46728
13.3302   4.48829
13.2961   4.41760
13.2621   4.39075
13.2282   4.47869
13.1946   4.40797
13.1611   4.22696
13.1278   4.03673
13.0946   3.91591
13.0616   4.01507
13.0288   4.09068
12.9962   3.98186
12.9637   4.24506
12.9313   4.61116
12.8992   4.80214
12.8672   5.02303
12.8353   5.22574
12.8036   5.44515
12.7721   5.54660
12.7407   5.52311
12.7095   5.35272
12.6784   5.16159
12.6475   5.05499
12.6167   5.12291
12.5861   5.33206
12.5556   5.71373
12.5253   5.89780
12.4951   5.68190
12.4651   5.47731
12.4352   5.24814
12.4054   5.18898
12.3758   4.73124
12.3463   4.22128
12.3170   4.05469
12.2878   4.04590
12.2588   4.00384
12.2299   4.06065
12.2011   4.15895
12.1725   4.41405
12.1439   4.75361
12.1156   4.87944
12.0873   4.92953
12.0592   4.93731
12.0312   4.99523
12.0034   5.13343
11.9757   5.43114
11.9481   5.68782
11.9206   5.65727
11.8933   5.65050
11.8661   5.91661
11.8390   6.20895
11.8120   6.47603
11.7852   6.68640
11.7584   6.78710
11.7318   6.82889
11.7053   6.96411
11.6790   7.10223
11.6527   7.15025
11.6266   7.44473
11.6006   7.65372
11.5747   7.67665
11.5489   7.79224
11.5233   7.92169
11.4977   8.03246
11.4723   8.14379
11.4469   8.33605
11.4217   8.51441
11.3966   8.62739
11.3716   8.62745
11.3468   8.58367
11.3220   8.41711
11.2973   8.24645
11.2728   8.22835
11.2483   8.27716
11.2240   8.31083
11.1997   8.45426
11.1756   8.78729
11.1515   9.14223
11.1276   9.44866
11.1038   9.67308
11.0801   9.77845
11.0564   9.90481
11.0329   9.92791
11.0095   9.98585
10.9862   9.99232
10.9629   9.80393
10.9398   9.71482
10.9168   9.75087
10.8938   9.75974
10.8710   9.56019
10.8483   9.42329
10.8256   9.29501
10.8031   9.15894
10.7806   8.92678
10.7582   8.79046
10.7360   8.86690
10.7138   8.87703
10.6917   8.81218
10.6697   8.89829
10.6478   9.05000
10.6260   9.14419
10.6042   9.28401
10.5826   9.48091
10.5610   9.62792
10.5396  10.03790
10.5182  10.56790
10.4969  10.97440
10.4757  11.33170
10.4546  11.79440
10.4335  12.38820
10.4126  12.91790
10.3917  13.39040
10.3709  13.77850
10.3502  14.16600
10.3296  14.56890
10.3091  14.89820
10.2886  15.15170
10.2683  15.48160
10.2480  15.85720
10.2277  16.04100
10.2076  16.34960
10.1876  16.67540
10.1676  16.92360
10.1477  17.10180
10.1279  17.32260
10.1081  17.80270
10.0885  18.18280
10.0689  18.37710
10.0494  18.47100
10.0299  18.60280
10.0106  18.87780
 9.9913  19.26630
 9.9720  19.56410
 9.9529  19.85260
 9.9338  20.14010
 9.9148  20.25350
 9.8959  20.46630
 9.8771  20.68510
 9.8583  20.84610
 9.8396  21.08040
 9.8210  21.29910
 9.8024  21.58910
 9.7839  21.98220
 9.7655  22.22720
 9.7471  22.36840
 9.7288  22.62140
 9.7106  22.87350
 9.6925  23.25660
 9.6744  23.53630
 9.6564  23.67080
 9.6384  23.75060
 9.6205  23.77690
 9.6027  23.69140
 9.5850  23.44280
 9.5673  23.01690
 9.5497  22.68880
 9.5321  22.35400
 9.5146  22.02310
 9.4972  21.91510
 9.4798  21.80190
 9.4625  21.53350
 9.4453  21.59030
 9.4281  22.00090
 9.4110  22.40930
 9.3940  22.87800
 9.3770  23.43790
 9.3600  23.85010
 9.3432  24.12980
 9.3264  24.37640
 9.3096  24.57780
 9.2930  24.88170
 9.2763  25.44540
 9.2598  25.69780
 9.2432  25.59650
 9.2268  25.48370
 9.2104  25.49050
 9.1941  25.50890
 9.1778  25.46650
 9.1616  25.53930
 9.1454  25.55560
 9.1293  25.46620
 9.1133  25.30650
 9.0973  25.17740
 9.0814  25.04560
 9.0655  24.71510
 9.0497  24.45750
 9.0339  24.23780
 9.0182  24.13800
 9.0025  23.86350
 8.9870  23.60530
 8.9714  23.32760
 8.9559  22.83940
 8.9405  22.31250
 8.9251  21.98490
 8.9097  21.61240
 8.8945  21.14510
 8.8792  20.57700
 8.8641  20.03160
 8.8489  19.56920
 8.8338  19.03440
 8.8188  18.56410
 8.8039  18.06950
 8.7889  17.39200
 8.7741  16.77100
 8.7592  15.95410
 8.7445  15.10780
 8.7297  14.34500
 8.7151  13.63470
 8.7005  12.94060
 8.6859  12.13310
 8.6714  11.28080
 8.6569  10.24920
 8.6425   9.21405
 8.6281   8.68693
 8.6137   8.80415
 8.5994   9.09070
 8.5852   9.51428
 8.5710   9.79725
 8.5569   9.78365
 8.5428   9.81204
 8.5287   9.86277
 8.5147   9.77375
 8.5008   9.52282
 8.4869   9.42056
 8.4730   9.27287
 8.4592   9.11283
 8.4454   9.02539
 8.4316   9.04406
 8.4180   9.12983
 8.4043   9.02904
 8.3907   8.81733
 8.3772   8.81818
 8.3637   8.78871
 8.3502   8.76637
 8.3368   8.66422
 8.3234   8.52444
 8.3100   8.45047
 8.2967   8.58500
 8.2835   8.60595
 8.2703   8.34084
 8.2571   8.25876
 8.2440   8.38674
 8.2309   8.38807
 8.2179   8.28452
 8.2049   8.17644
 8.1919   8.12881
 8.1790   8.00079
 8.1661   7.65744
 8.1532   7.35548
 8.1404   7.05381
 8.1277   6.70635
 8.1150   6.37060
 8.1023   6.03179
 8.0897   5.64677
 8.0770   5.37667
 8.0645   5.06335
 8.0520   4.71965
 8.0395   4.48011
 8.0270   4.24769
 8.0146   4.07716
 8.0023   3.90013
 7.9899   3.53324
 7.9776   3.30665
 7.9654   3.19141
 7.9532   2.97284
 7.9410   2.85336
 7.9288   2.77411
 7.9167   2.66301
 7.9047   2.58480
 7.8926   2.42055
 7.8807   2.36578
 7.8687   2.31370
 7.8568   2.24429
 7.8449   2.18431
 7.8330   2.10733
 7.8212   2.07534
 7.8094   2.06093
 7.7977   1.92382
 7.7860   1.92015
 7.7743   2.04975
 7.7627   2.05936
 7.7511   1.96599
 7.7395   1.94101
 7.7280   1.91178
 7.7165   1.91024
 7.7050   1.96022
 7.6936   2.01057
 7.6822   1.94053
 7.6708   1.86282
 7.6595   1.84516
 7.6482   1.96275
 7.6369   1.99941
 7.6257   1.96800
 7.6145   2.09192
 7.6033   2.08759
 7.5922   2.04846
 7.5811   2.05322
 7.5700   2.20392
 7.5590   2.21445
 7.5480   2.15852
 7.5370   2.08826
 7.5261   2.09251
 7.5152   2.10467
 7.5043   2.08715
 7.4935   2.06769
 7.4826   2.11027
 7.4718   2.23441
 7.4611   2.29439
 7.4504   2.33320
 7.4397   2.32595
 7.4290   2.30902
 7.4184   2.33300
 7.4078   2.45524
 7.3972   2.43730
 7.3867   2.33808
 7.3762   2.43705
 7.3657   2.48386
 7.3553   2.48106
 7.3449   2.54780
 7.3345   2.57600
 7.3241   2.53717
 7.3138   2.52694
 7.3035   2.57833
 7.2932   2.63546
 7.2830   2.66102
 7.2727   2.67571
 7.2626   2.78083
 7.2524   2.84558
 7.2423   2.84256
 7.2322   2.92150
 7.2221   2.98714
 7.2120   2.94569
 7.2020   2.87860
 7.1921   2.89100
 7.1821   2.87365
 7.1722   2.93882
 7.1623   3.08806
 7.1524   3.10067
 7.1425   3.03264
 7.1327   3.01188
 7.1229   3.07349
 7.1131   3.14875
 7.1034   3.14028
 7.0937   3.15383
 7.0840   3.25744
 7.0743   3.30610
 7.0647   3.31729
 7.0551   3.33776
 7.0455   3.29094
 7.0359   3.32672
 7.0264   3.43456
 7.0169   3.37510
 7.0074   3.25753
 6.9979   3.30716
 6.9885   3.43992
 6.9791   3.46623
 6.9697   3.52909
 6.9604   3.64565
 6.9510   3.60302
 6.9417   3.58606
 6.9324   3.67680
 6.9232   3.77461
 6.9140   3.86507
 6.9047   3.90830
 6.8956   3.86583
 6.8864   3.78750
 6.8773   3.81504
 6.8682   3.88220
 6.8591   3.95524
 6.8500   3.93823
 6.8410   3.93457
 6.8320   3.95474
 6.8230   4.00378
 6.8140   4.02399
 6.8051   4.04553
 6.7962   4.16460
 6.7873   4.27638
 6.7784   4.34286
 6.7695   4.38178
 6.7607   4.32607
 6.7519   4.29871
 6.7431   4.27833
 6.7344   4.31598
 6.7256   4.47585
 6.7169   4.55009
 6.7082   4.50777
 6.6996   4.52364
 6.6909   4.61105
 6.6823   4.70047
 6.6737   4.69061
 6.6651   4.70514
 6.6566   4.69116
 6.6480   4.71301
 6.6395   4.72760
 6.6310   4.73236
 6.6226   4.72790
 6.6141   4.76287
 6.6057   4.84520
 6.5973   4.91113
 6.5889   4.89059
 6.5805   4.88994
 6.5722   4.93776
 6.5639   4.97705
 6.5556   5.03215
 6.5473   5.14948
 6.5390   5.25397
 6.5308   5.21009
 6.5226   5.18504
 6.5144   5.11491
 6.5062   5.07281
 6.4981   5.21180
 6.4900   5.33210
 6.4818   5.36702
 6.4737   5.43210
 6.4657   5.41985
 6.4576   5.33331
 6.4496   5.31387
 6.4416   5.39313
 6.4336   5.44415
 6.4256   5.56259
 6.4177   5.69664
 6.4097   5.62724
 6.4018   5.46318
 6.3939   5.39400
 6.3860   5.38361
 6.3782   5.47345
 6.3704   5.48148
 6.3625   5.46315
 6.3547   5.54417
 6.3470   5.60328
 6.3392   5.51123
 6.3315   5.53770
 6.3237   5.62549
 6.3160   5.60607
 6.3083   5.52742
 6.3007   5.53911
 6.2930   5.59991
 6.2854   5.63752
 6.2778   5.67474
 6.2702   5.58934
 6.2626   5.55031
 6.2551   5.51092
 6.2476   5.49079
 6.2400   5.55754
 6.2325   5.52880
 6.2251   5.45638
 6.2176   5.38746
 6.2101   5.38283
 6.2027   5.32013
 6.1953   5.31691
 6.1879   5.40975
 6.1805   5.40224
 6.1732   5.35155
 6.1658   5.31975
 6.1585   5.26913
 6.1512   5.21590
 6.1439   5.26404
 6.1367   5.35221
 6.1294   5.34011
 6.1222   5.33306
 6.1149   5.38054
 6.1077   5.36374
 6.1006   5.30930
 6.0934   5.28670
 6.0862   5.36521
 6.0791   5.34088
 6.0720   5.30605
 6.0649   5.34672
 6.0578   5.31335
 6.0507   5.29903
 6.0437   5.28022
 6.0366   5.21426
 6.0296   5.19694
 6.0226   5.20702
 6.0156   5.16954
 6.0087   5.09541
 6.0017   5.08810
 5.9948   5.12164
 5.9878   5.09667
 5.9809   4.95080
 5.9740   4.97707
 5.9672   5.07723
 5.9603   5.08278
 5.9535   5.10520
 5.9466   5.08778
 5.9398   5.14283
 5.9330   5.08506
 5.9262   5.03255
 5.9195   5.03051
 5.9127   5.02362
 5.9060   5.06857
 5.8993   5.11799
 5.8926   5.10597
 5.8859   5.11486
 5.8792   5.06798
 5.8726   5.10632
 5.8659   5.21376
 5.8593   5.21536
 5.8527   5.19984
 5.8461   5.21716
 5.8395   5.26790
 5.8329   5.33376
 5.8264   5.33002
 5.8198   5.30387
 5.8133   5.25856
 5.8068   5.18751
 5.8003   5.22859
 5.7938   5.26865
 5.7874   5.28154
 5.7809   5.31438
 5.7745   5.36669
 5.7680   5.52298
 5.7616   5.50218
 5.7552   5.39280
 5.7489   5.42972
 5.7425   5.50535
 5.7361   5.54913
 5.7298   5.58742
 5.7235   5.58184
 5.7172   5.54229
 5.7109   5.53084
 5.7046   5.59117
 5.6983   5.65699
 5.6921   5.59636
 5.6858   5.50490
 5.6796   5.42007
 5.6734   5.39788
 5.6672   5.42628
 5.6610   5.48387
 5.6548   5.52376
 5.6487   5.53299
 5.6425   5.58237
 5.6364   5.56732
 5.6303   5.50994
 5.6242   5.43193
 5.6181   5.40382
 5.6120   5.45691
 5.6059   5.51841
 5.5999   5.51111
 5.5938   5.43405
 5.5878   5.42926
 5.5818   5.44192
 5.5758   5.48351
 5.5698   5.44695
 5.5638   5.47438
 5.5578   5.52411
 5.5519   5.52000
 5.5460   5.50045
 5.5400   5.52400
 5.5341   5.59634
 5.5282   5.59072
 5.5223   5.56540
 5.5164   5.58405
 5.5106   5.61615
 5.5047   5.65620
 5.4989   5.64492
 5.4931   5.64354
 5.4873   5.67628
 5.4815   5.69190
 5.4757   5.74756
 5.4699   5.82128
 5.4641   5.88087
 5.4584   5.82491
 5.4527   5.93114
 5.4469   6.02091
 5.4412   5.90985
 5.4355   5.90359
 5.4298   5.95503
 5.4241   5.98403
 5.4185   6.00341
 5.4128   5.98136
 5.4072   5.98225
 5.4015   5.98105
 5.3959   6.07685
 5.3903   6.17662
 5.3847   6.13652
 5.3791   6.09022
 5.3735   6.03095
 5.3680   6.07162
 5.3624   6.14247
 5.3569   6.14725
 5.3514   6.12762
 5.3458   6.18049
 5.3403   6.35089
 5.3348   6.44978
 5.3294   6.39688
 5.3239   6.43464
 5.3184   6.47549
 5.3130   6.44580
 5.3075   6.53497
 5.3021   6.64092
 5.2967   6.68821
 5.2913   6.76427
 5.2859   6.80684
 5.2805   6.91004
 5.2751   6.96674
 5.2698   7.00113
 5.2644   7.09392
 5.2591   7.19212
 5.2538   7.25290
 5.2485   7.32290
 5.2431   7.46650
 5.2378   7.53111
 5.2326   7.52499
 5.2273   7.60525
 5.2220   7.69122
 5.2168   7.78069
 5.2115   7.89195
 5.2063   7.99148
 5.2011   8.10718
 5.1959   8.10082
 5.1907   8.17204
 5.1855   8.19734
 5.1803   8.22791
 5.1751   8.35587
 5.1700   8.43332
 5.1648   8.47597
 5.1597   8.56715
 5.1545   8.64239
 5.1494   8.77496
 5.1443   8.76932
 5.1392   8.81696
 5.1341   8.89531
 5.1291   8.86505
 5.1240   8.83762
 5.1189   8.96521
 5.1139   9.06909
 5.1088   9.14481
 5.1038   9.16691
 5.0988   9.17237
 5.0938   9.16795
 5.0888   9.16060
 5.0838   9.27384
 5.0788   9.35740
 5.0738   9.42658
 5.0689   9.38249
 5.0639   9.28309
 5.0590   9.21941
 5.0541   9.29568
 5.0491   9.38980
 5.0442   9.35453
 5.0393   9.30485
 5.0344   9.30900
 5.0296   9.41829
 5.0247   9.46421
 5.0198   9.48882
 5.0150   9.48806
 5.0101   9.47404
 5.0053   9.49513
 5.0004   9.50937
 4.9956   9.48552
 4.9908   9.43292
 4.9860   9.46063
 4.9812   9.51760
 4.9765   9.56276
 4.9717   9.57115
 4.9669   9.54459
 4.9622   9.54401
 4.9574   9.55055
 4.9527   9.55029
 4.9480   9.61630
 4.9432   9.71197
 4.9385   9.70316
 4.9338   9.70490
 4.9291   9.70100
 4.9245   9.75963
 4.9198   9.89146
 4.9151   9.96428
 4.9105   9.92353
 4.9058   9.98648
 4.9012  10.09080
 4.8966  10.17920
 4.8919  10.26050
 4.8873  10.31630
 4.8827  10.37700
 4.8781  10.46210
 4.8736  10.59960
 4.8690  10.77600
 4.8644  10.90380
 4.8599  10.94950
 4.8553  10.94300
 4.8508  11.00590
 4.8462  11.08090
 4.8417  11.17770
 4.8372  11.29100
 4.8327  11.34760
 4.8282  11.39400
 4.8237  11.47650
 4.8192  11.55270
 4.8147  11.57630
 4.8103  11.62190
 4.8058  11.71060
 4.8014  11.74480
 4.7969  11.79050
 4.7925  11.92660
 4.7881  12.03330
 4.7836  12.04880
 4.7792  12.19250
 4.7748  12.37490
 4.7704  12.33750
 4.7660  12.34320
 4.7617  12.47590
 4.7573  12.59350
 4.7530  12.68190
 4.7486  12.71820
 4.7443  12.77990
 4.7399  12.90010
 4.7356  12.92630
 4.7313  12.96430
 4.7270  13.07180
 4.7226  13.09500
 4.7184  13.13490
 4.7141  13.26600
 4.7098  13.33720
 4.7055  13.32580
 4.7012  13.34410
 4.6970  13.33910
 4.6927  13.31980
 4.6885  13.39570
 4.6842  13.49520
 4.6800  13.50360
 4.6758  13.53850
 4.6716  13.58160
 4.6674  13.68130
 4.6632  13.82830
 4.6590  14.03640
 4.6548  14.19420
 4.6506  14.38910
 4.6465  14.59810
 4.6423  14.72420
 4.6382  14.85240
 4.6340  15.01660
 4.6299  15.13780
 4.6258  15.23950
 4.6216  15.32410
 4.6175  15.43040
 4.6134  15.55040
 4.6093  15.70030
 4.6052  15.84450
 4.6011  15.90570
 4.5971  15.96900
 4.5930  16.14210
 4.5889  16.32450
 4.5849  16.41690
 4.5808  16.41420
 4.5768  16.45160
 4.5727  16.57150
 4.5687  16.64450
 4.5647  16.62900
 4.5607  16.67970
 4.5567  16.76610
 4.5526  16.87190
 4.5487  16.89510
 4.5447  16.87610
 4.5407  16.89840
 4.5367  16.91980
 4.5328  16.99790
 4.5288  17.04820
 4.5248  17.05400
 4.5209  16.95050
 4.5170  16.97490
 4.5130  17.06740
 4.5091  17.02340
 4.5052  17.02970
 4.5013  17.07600
 4.4974  16.97580
 4.4935  16.93080
 4.4896  17.05600
 4.4857  17.02940
 4.4818  17.02650
 4.4779  17.06550
 4.4741  17.12770
 4.4702  17.31140
 4.4664  17.43040
 4.4625  17.50160
 4.4587  17.72450
 4.4549  17.91040
 4.4510  18.07140
 4.4472  18.29680
 4.4434  18.32580
 4.4396  18.34750
 4.4358  18.45120
 4.4320  18.57940
 4.4282  18.70000
 4.4245  18.79280
 4.4207  19.00280
 4.4169  19.16140
 4.4132  19.18990
 4.4094  19.32550
 4.4057  19.51040
 4.4019  19.63790
 4.3982  19.74940
 4.3945  19.96270
 4.3907  20.21960
 4.3870  20.30020
 4.3833  20.33220
 4.3796  20.47260
 4.3759  20.58310
 4.3722  20.63140
 4.3685  20.72430
 4.3649  20.86610
 4.3612  20.98200
 4.3575  21.12510
 4.3539  21.23890
 4.3502  21.29990
 4.3466  21.42520
 4.3429  21.51930
 4.3393  21.51570
 4.3357  21.58880
 4.3320  21.67450
 4.3284  21.77260
 4.3248  21.80810
 4.3212  21.72500
 4.3176  21.69810
 4.3140  21.68680
 4.3105  21.68370
 4.3069  21.73090
 4.3033  21.69220
 4.2997  21.70030
 4.2962  21.66800
 4.2926  21.58240
 4.2890  21.66950
 4.2855  21.68820
 4.2820  21.69660
 4.2784  21.77710
 4.2749  21.78670
 4.2714  21.85750
 4.2679  22.03550
 4.2644  22.20300
 4.2609  22.23440
 4.2574  22.24380
 4.2539  22.36480
 4.2504  22.40580
 4.2469  22.24900
 4.2434  22.17850
 4.2400  22.28040
 4.2365  22.31740
 4.2330  22.41320
 4.2296  22.40610
 4.2261  22.36930
 4.2227  22.44510
 4.2193  22.43180
 4.2158  22.49210
 4.2124  22.57160
 4.2090  22.63720
 4.2056  22.65980
 4.2022  22.75900
 4.1988  22.78700
 4.1954  22.86340
 4.1920  22.98950
 4.1886  22.95540
 4.1852  22.87890
 4.1818  22.85870
 4.1785  22.85900
 4.1751  22.95100
 4.1717  23.14630
 4.1684  23.27100
 4.1650  23.35130
 4.1617  23.32800
 4.1584  23.28330
 4.1550  23.32410
 4.1517  23.34280
 4.1484  23.41460
 4.1451  23.46780
 4.1418  23.49580
 4.1384  23.53360
 4.1351  23.61600
 4.1319  23.66280
 4.1286  23.74670
 4.1253  23.82250
 4.1220  23.89350
 4.1187  23.96080
 4.1155  23.98350
 4.1122  24.10850
 4.1089  24.01560
 4.1057  23.88540
 4.1024  23.94290
 4.0992  24.05990
 4.0959  24.08680
 4.0927  24.14940
 4.0895  24.33290
 4.0863  24.37570
 4.0830  24.44210
 4.0798  24.56840
 4.0766  24.69470
 4.0734  24.65160
 4.0702  24.50930
 4.0670  24.53300
 4.0639  24.49860
 4.0607  24.57230
 4.0575  24.68570
 4.0543  24.59640
 4.0511  24.58620
 4.0480  24.67000
 4.0448  24.71250
 4.0417  24.72920
 4.0385  24.66710
 4.0354  24.65820
 4.0323  24.70060
 4.0291  24.61160
 4.0260  24.60920
 4.0229  24.69200
 4.0197  24.79240
 4.0166  24.83270
 4.0135  24.71830
 4.0104  24.74150
 4.0073  24.76870
 4.0042  24.70690
 4.0011  24.80420
 3.9981  24.90260
 3.9950  24.76200
 3.9919  24.83320
 3.9888  25.04830
 3.9857  25.06970
 3.9827  25.04060
 3.9796  25.21360
 3.9766  25.24720
 3.9735  25.16300
 3.9705  25.10070
 3.9675  24.98370
 3.9644  25.01930
 3.9614  25.32280
 3.9584  25.40880
 3.9554  25.36020
 3.9523  25.35860
 3.9493  25.41560
 3.9463  25.47210
 3.9433  25.50590
 3.9403  25.66170
 3.9373  25.71400
 3.9343  25.73600
 3.9314  25.76180
 3.9284  25.77330
 3.9254  25.83150
 3.9224  25.88330
 3.9195  25.95600
 3.9165  25.97660
 3.9136  25.90580
 3.9106  25.79840
 3.9077  25.86790
 3.9047  25.90320
 3.9018  25.83780
 3.8988  25.82580
 3.8959  25.88490
 3.8930  25.93760
 3.8901  25.98250
 3.8872  25.88990
 3.8842  25.89320
 3.8813  26.03850
 3.8784  26.01120
 3.8755  25.94200
 3.8726  25.91940
 3.8697  25.95260
 3.8669  25.91560
 3.8640  25.91240
 3.8611  25.92300
 3.8582  25.83210
 3.8554  25.86110
 3.8525  25.83740
