Name: Ferroaxinite Ca_2Fe^2+Al_2BSi_4O_15(OH)
Type: Mineral
Class: Silicates
Subclass: Cyclosilicates
Particle Size: 125-500um
Sample No.: CS-4A
Owner: JPL
Wavelength range: IR
Origin: Mexico, Baja California Norte, Los Gavelontos
Collected by Ward's
Description: 





Measurement: Hemispherical reflectance
First Column: X
Second Column: Y
X Units:  Wavelength (micrometers)
Y Units:  Reflectance (percent)
First X Value: 15.3853
Last X Value: 2.00032
Number of X Values: 2256
Additional information: cs04aa.txt
 
15.3853	1.5904
15.3397	1.42135
15.2945	1.3923
15.2495	1.39836
15.2048	1.75013
15.1603	2.36331
15.1161	2.74865
15.0722	3.27634
15.0285	3.52559
14.9851	3.41234
14.9419	3.24082
14.8989	2.82394
14.8563	2.24915
14.8138	1.86157
14.7716	1.8439
14.7296	2.0106
14.6879	1.9122
14.6464	1.62645
14.6052	1.35325
14.5641	1.27688
14.5233	1.73663
14.4828	1.93177
14.4424	1.92645
14.4023	2.05253
14.3624	2.18788
14.3227	2.16431
14.2833	2.0679
14.244	2.30166
14.205	2.47595
14.1662	2.46895
14.1276	2.56235
14.0892	2.7415
14.051	2.82069
14.0131	2.94832
13.9753	3.05814
13.9377	3.23006
13.9004	3.35444
13.8632	3.33362
13.8262	3.4662
13.7895	3.46829
13.7529	3.42675
13.7165	3.39746
13.6803	3.40415
13.6443	3.76007
13.6085	4.11461
13.5729	4.27546
13.5374	4.1973
13.5022	4.0523
13.4671	4.10533
13.4322	4.14775
13.3975	4.2354
13.363	4.44139
13.3286	4.58679
13.2944	4.74014
13.2604	4.69708
13.2266	4.75814
13.193	4.87713
13.1595	4.97504
13.1262	5.14575
13.093	5.31853
13.06	5.43992
13.0272	5.60106
12.9946	5.65794
12.9621	5.82429
12.9298	5.99517
12.8976	6.0679
12.8656	6.07389
12.8337	6.04561
12.8021	6.04302
12.7705	5.78346
12.7391	5.58799
12.7079	5.64677
12.6769	5.62878
12.6459	5.69048
12.6152	5.66104
12.5845	5.79224
12.5541	6.1679
12.5238	6.36676
12.4936	6.47235
12.4635	6.69534
12.4337	6.81203
12.4039	6.89322
12.3743	7.02637
12.3448	7.30395
12.3155	7.73881
12.2863	7.98551
12.2573	8.10284
12.2284	8.10664
12.1996	8.23269
12.171	8.68193
12.1425	9.05712
12.1141	9.16013
12.0859	9.08449
12.0578	9.00886
12.0298	8.8954
12.0019	8.8223
11.9742	9.09394
11.9466	9.46263
11.9192	9.68296
11.8918	9.99685
11.8646	10.5601
11.8375	11.1472
11.8106	11.6904
11.7837	12.1096
11.757	12.5912
11.7304	13.1514
11.7039	13.4972
11.6776	13.4933
11.6513	13.521
11.6252	13.7882
11.5992	14.149
11.5733	14.6602
11.5475	15.2082
11.5219	15.8881
11.4963	16.6644
11.4709	17.4297
11.4455	18.2023
11.4203	18.8561
11.3952	19.287
11.3702	19.6217
11.3454	19.7638
11.3206	19.76
11.2959	19.7876
11.2714	20.0682
11.2469	20.4398
11.2226	20.6439
11.1983	20.6177
11.1742	20.2037
11.1502	19.3406
11.1263	18.1331
11.1024	16.553
11.0787	14.8895
11.0551	13.6857
11.0316	13.0463
11.0081	12.9782
10.9848	13.5566
10.9616	14.418
10.9385	15.5048
10.9154	16.6712
10.8925	17.7168
10.8697	18.5072
10.8469	19.0644
10.8243	19.4095
10.8017	19.6222
10.7793	19.9493
10.7569	20.5049
10.7346	21.2702
10.7125	22.3074
10.6904	23.3083
10.6684	24.195
10.6465	25.296
10.6247	26.3914
10.6029	27.256
10.5813	27.7027
10.5597	27.787
10.5383	27.5313
10.5169	26.8444
10.4956	25.6683
10.4744	24.0498
10.4533	22.106
10.4323	20.0041
10.4113	17.9246
10.3904	16.2256
10.3697	14.877
10.349	13.7787
10.3284	12.7535
10.3078	11.7446
10.2874	10.7654
10.267	9.70997
10.2467	8.6909
10.2265	8.08735
10.2064	7.91756
10.1863	8.06034
10.1663	8.36821
10.1464	8.53358
10.1266	8.67823
10.1069	8.80777
10.0872	8.56998
10.0676	8.28513
10.0481	8.17317
10.0287	8.3471
10.0093	8.88713
9.99005	9.81469
9.97084	10.6785
9.95169	11.1041
9.93263	11.1753
9.91364	10.9186
9.89472	10.4703
9.87587	9.79136
9.8571	9.03219
9.83839	8.18783
9.81976	7.36345
9.80119	6.65352
9.78271	6.25512
9.76428	6.08379
9.74592	6.23058
9.72764	6.77324
9.70943	7.67009
9.69128	8.85616
9.6732	10.2312
9.65518	11.5758
9.63724	12.9104
9.61935	14.249
9.60155	15.5418
9.5838	16.5823
9.56611	17.3713
9.5485	18.0651
9.53094	18.4394
9.51345	18.4452
9.49604	18.2554
9.47867	18.055
9.46137	17.7731
9.44414	18.0809
9.42697	19.1623
9.40986	20.6149
9.39281	22.102
9.37583	23.5578
9.35891	24.7133
9.34204	25.4065
9.32524	25.5206
9.3085	25.0734
9.29182	24.217
9.27519	23.3224
9.25863	22.6854
9.24213	22.3922
9.22568	22.5273
9.2093	23.0125
9.19297	23.8209
9.17669	24.7781
9.16048	25.7238
9.14433	26.3913
9.12823	26.3501
9.11218	25.8731
9.0962	24.9757
9.08027	23.5542
9.06439	21.7609
9.04858	19.945
9.03281	18.3976
9.0171	17.1037
9.00145	15.8753
8.98585	14.675
8.9703	13.4583
8.9548	12.3614
8.93937	11.3934
8.92398	10.5561
8.90865	9.81598
8.89337	9.03271
8.87814	8.38894
8.86296	7.90792
8.84784	7.34947
8.83277	6.80856
8.81774	6.5901
8.80277	6.35621
8.78786	6.31119
8.77298	6.39506
8.75816	6.35127
8.7434	6.16026
8.72868	5.97336
8.714	5.77367
8.69938	5.4004
8.68481	4.94137
8.67029	4.38592
8.65581	3.66132
8.64139	3.01441
8.62701	2.57604
8.61268	2.19739
8.5984	1.83361
8.58416	1.49638
8.56997	1.23486
8.55583	1.06889
8.54174	0.968402
8.52769	0.807843
8.51368	0.602103
8.49973	0.52878
8.48582	0.445317
8.47195	0.432109
8.45813	0.333188
8.44436	0.180483
8.43062	0.0107889
8.41693	-0.000484294
8.4033	0.164865
8.3897	0.164365
8.37614	0.15902
8.36264	0.2512
8.34917	0.122561
8.33574	0.033904
8.32236	0.113912
8.30903	0.238882
8.29573	0.255695
8.28248	0.189078
8.26927	0.0827883
8.2561	0.0559983
8.24298	0.0961372
8.2299	0.145922
8.21685	0.203109
8.20385	0.21526
8.19089	0.185888
8.17797	0.144173
8.16509	0.289472
8.15225	0.375116
8.13946	0.343684
8.1267	0.347428
8.11398	0.25729
8.10131	0.227522
8.08867	0.206447
8.07606	0.15289
8.0635	0.259408
8.05099	0.422951
8.0385	0.43083
8.02606	0.337878
8.01366	0.28426
8.00129	0.414489
7.98896	0.491096
7.97667	0.504069
7.96442	0.506205
7.9522	0.513528
7.94002	0.519435
7.92788	0.490391
7.91578	0.465759
7.90371	0.479623
7.89168	0.416921
7.87969	0.410573
7.86773	0.550903
7.85581	0.635684
7.84392	0.624402
7.83207	0.628223
7.82026	0.580032
7.80849	0.593251
7.79674	0.651284
7.78503	0.682925
7.77337	0.749401
7.76173	0.848129
7.75012	0.849702
7.73856	0.782876
7.72703	0.74967
7.71553	0.762882
7.70406	0.820615
7.69263	0.875209
7.68123	0.933471
7.66987	0.866667
7.65855	0.919395
7.64725	1.06398
7.63598	1.02701
7.62475	0.968188
7.61356	1.03299
7.60239	1.04587
7.59126	1.07921
7.58017	1.03459
7.5691	0.990171
7.55806	1.07026
7.54707	1.19425
7.5361	1.25155
7.52516	1.17027
7.51425	1.15227
7.50338	1.16357
7.49253	1.19327
7.48172	1.36891
7.47094	1.43449
7.46019	1.32053
7.44947	1.30437
7.43879	1.41278
7.42813	1.49694
7.4175	1.4721
7.4069	1.46386
7.39634	1.46516
7.3858	1.49017
7.37529	1.52422
7.36482	1.51129
7.35437	1.5873
7.34396	1.69776
7.33357	1.68077
7.32321	1.57909
7.31288	1.59901
7.30258	1.7271
7.29231	1.77568
7.28207	1.73537
7.27185	1.75151
7.26167	1.7332
7.25152	1.72767
7.24139	1.75755
7.23129	1.7282
7.22122	1.81197
7.21117	1.89113
7.20116	1.87223
7.19117	1.8912
7.18121	1.85594
7.17128	1.80688
7.16137	1.88637
7.1515	1.96869
7.14164	1.96728
7.13182	2.08502
7.12203	2.23623
7.11225	2.16368
7.10251	2.05515
7.0928	2.08219
7.08311	2.18189
7.07344	2.23415
7.06381	2.24317
7.0542	2.28128
7.04461	2.38024
7.03506	2.29205
7.02552	2.18697
7.01601	2.16656
7.00653	2.22698
6.99708	2.36823
6.98765	2.40825
6.97824	2.40709
6.96886	2.42419
6.95951	2.33997
6.95018	2.1796
6.94087	2.26536
6.9316	2.29454
6.92234	2.25421
6.91311	2.35032
6.90391	2.43657
6.89473	2.45536
6.88557	2.50797
6.87644	2.53385
6.86733	2.61228
6.85824	2.60651
6.84918	2.43778
6.84015	2.41253
6.83114	2.46121
6.82215	2.48292
6.81319	2.50292
6.80424	2.53965
6.79532	2.56911
6.78643	2.50964
6.77756	2.47849
6.76871	2.49761
6.75989	2.57177
6.75109	2.61576
6.74231	2.60534
6.73355	2.49407
6.72482	2.49043
6.71611	2.6226
6.70742	2.59458
6.69875	2.49838
6.69011	2.52436
6.68149	2.65659
6.67289	2.67919
6.66431	2.63984
6.65576	2.61652
6.64722	2.68077
6.63871	2.7831
6.63022	2.81604
6.62175	2.85466
6.61331	2.8967
6.60488	2.80769
6.59648	2.85376
6.5881	2.87084
6.57974	2.88958
6.5714	2.96167
6.56308	2.95153
6.55478	2.98256
6.54651	2.99245
6.53825	2.98066
6.53001	2.96533
6.5218	2.95531
6.51361	2.95643
6.50544	3.04944
6.49729	3.21267
6.48915	3.22952
6.48104	3.14411
6.47295	3.07083
6.46488	3.08969
6.45683	3.16576
6.4488	3.12682
6.44079	3.15929
6.4328	3.27799
6.42482	3.33416
6.41687	3.43714
6.40894	3.31346
6.40103	3.15857
6.39314	3.21
6.38526	3.3201
6.37741	3.41442
6.36957	3.43813
6.36176	3.307
6.35396	3.30569
6.34618	3.42552
6.33843	3.40033
6.33069	3.35693
6.32297	3.41833
6.31527	3.46338
6.30758	3.46359
6.29992	3.52833
6.29227	3.52946
6.28465	3.4764
6.27704	3.49805
6.26945	3.56072
6.26188	3.52984
6.25432	3.4911
6.24679	3.56358
6.23927	3.56267
6.23177	3.61185
6.22429	3.63963
6.21683	3.66048
6.20938	3.69948
6.20195	3.69882
6.19454	3.75618
6.18715	3.91966
6.17978	3.82376
6.17242	3.70568
6.16508	3.77782
6.15776	3.75352
6.15045	3.74927
6.14317	3.82786
6.1359	3.88203
6.12864	3.8889
6.12141	3.90692
6.11419	3.97605
6.10699	3.93703
6.0998	3.80749
6.09263	3.7408
6.08549	3.76469
6.07835	3.90266
6.07123	4.02514
6.06413	3.8937
6.05705	4.00004
6.04998	4.28224
6.04293	4.08984
6.0359	3.87277
6.02888	3.83595
6.02187	3.91985
6.01489	3.92831
6.00792	3.77944
6.00096	3.68028
5.99403	3.68303
5.98711	3.71428
5.9802	3.65043
5.97331	3.56701
5.96644	3.53235
5.95958	3.51494
5.95274	3.49717
5.94591	3.50518
5.9391	3.58175
5.9323	3.45425
5.92552	3.29379
5.91876	3.26812
5.91201	3.21937
5.90528	3.17913
5.89856	3.23949
5.89186	3.17751
5.88517	3.18561
5.8785	3.1879
5.87184	3.01674
5.8652	3.01542
5.85857	2.94648
5.85196	2.90374
5.84536	2.78077
5.83878	2.7138
5.83221	2.77193
5.82566	2.88093
5.81912	2.88774
5.81259	2.66182
5.80608	2.5311
5.79959	2.53302
5.79311	2.5602
5.78665	2.59881
5.78019	2.61827
5.77376	2.62394
5.76734	2.62669
5.76093	2.53823
5.75453	2.40804
5.74815	2.4221
5.74179	2.52141
5.73543	2.57815
5.7291	2.53285
5.72277	2.53164
5.71646	2.68285
5.71017	2.794
5.70389	2.77598
5.69762	2.67684
5.69136	2.62011
5.68513	2.6924
5.6789	2.78106
5.67268	2.78864
5.66648	2.7601
5.6603	2.78791
5.65413	2.88741
5.64797	3.05556
5.64182	3.07328
5.63569	2.99122
5.62957	3.00409
5.62347	3.11439
5.61737	3.13359
5.61129	3.10472
5.60522	3.18848
5.59917	3.28513
5.59313	3.29408
5.5871	3.21429
5.58109	3.22841
5.57509	3.3537
5.5691	3.38821
5.56312	3.37804
5.55716	3.3991
5.55121	3.49399
5.54528	3.60797
5.53935	3.57474
5.53344	3.49066
5.52754	3.52386
5.52166	3.5814
5.51578	3.62483
5.50992	3.65469
5.50407	3.63748
5.49823	3.60948
5.49241	3.63787
5.4866	3.63948
5.4808	3.66185
5.47501	3.70184
5.46923	3.71076
5.46347	3.73912
5.45772	3.71496
5.45198	3.68558
5.44625	3.70847
5.44054	3.75274
5.43484	3.75668
5.42914	3.7064
5.42347	3.72426
5.4178	3.77739
5.41214	3.80434
5.4065	3.79601
5.40087	3.84555
5.39525	3.86241
5.38964	3.85213
5.38404	3.96019
5.37846	3.96755
5.37288	3.89974
5.36732	3.92569
5.36177	3.9852
5.35623	3.98415
5.35071	3.94721
5.34519	3.95012
5.33968	4.01225
5.33419	4.02804
5.32871	3.97795
5.32324	4.01837
5.31778	4.15536
5.31233	4.17714
5.30689	4.16918
5.30147	4.17148
5.29605	4.21898
5.29065	4.25179
5.28525	4.21851
5.27987	4.22271
5.2745	4.3151
5.26914	4.43636
5.26379	4.38692
5.25845	4.30478
5.25312	4.30101
5.24781	4.27085
5.2425	4.22757
5.23721	4.2107
5.23192	4.24852
5.22665	4.25746
5.22138	4.2852
5.21613	4.38263
5.21089	4.39189
5.20566	4.30032
5.20044	4.32754
5.19522	4.39702
5.19002	4.35371
5.18483	4.34938
5.17965	4.38966
5.17448	4.40635
5.16933	4.33669
5.16418	4.28804
5.15904	4.39866
5.15391	4.46858
5.14879	4.45288
5.14368	4.45709
5.13859	4.4936
5.1335	4.54302
5.12842	4.60301
5.12335	4.68046
5.1183	4.73128
5.11325	4.72338
5.10821	4.65449
5.10318	4.71702
5.09817	4.78942
5.09316	4.78075
5.08816	4.85303
5.08317	4.94929
5.07819	4.89305
5.07322	4.88909
5.06826	4.94182
5.06331	5.05583
5.05837	5.13164
5.05344	5.17938
5.04852	5.1456
5.04361	5.12701
5.03871	5.13184
5.03382	5.11297
5.02894	5.18556
5.02406	5.28004
5.0192	5.36027
5.01435	5.445
5.0095	5.52722
5.00467	5.58695
4.99984	5.60607
4.99502	5.59539
4.99021	5.66345
4.98542	5.7589
4.98063	5.82416
4.97585	5.77471
4.97108	5.76241
4.96632	5.83316
4.96156	5.91207
4.95682	5.92801
4.95209	5.95741
4.94736	5.99488
4.94264	6.02753
4.93794	6.08771
4.93324	6.14322
4.92855	6.21991
4.92387	6.3467
4.9192	6.47116
4.91453	6.54652
4.90988	6.57381
4.90524	6.56748
4.9006	6.65054
4.89597	6.71683
4.89135	6.76065
4.88674	6.90735
4.88214	7.06154
4.87755	7.18957
4.87296	7.26063
4.86839	7.25782
4.86382	7.32641
4.85926	7.53216
4.85471	7.66027
4.85017	7.68954
4.84564	7.73947
4.84111	7.78853
4.8366	7.89757
4.83209	7.9515
4.82759	8.08777
4.8231	8.17988
4.81862	8.1575
4.81415	8.26434
4.80968	8.37173
4.80522	8.49949
4.80077	8.59567
4.79633	8.63359
4.7919	8.69115
4.78747	8.87579
4.78306	9.03506
4.77865	9.08362
4.77425	9.20163
4.76986	9.33789
4.76547	9.53147
4.7611	9.59724
4.75673	9.65552
4.75237	9.80138
4.74802	9.92348
4.74367	10.0187
4.73934	10.1195
4.73501	10.2132
4.73069	10.3451
4.72638	10.4703
4.72207	10.5291
4.71777	10.6891
4.71348	10.8878
4.7092	11.0123
4.70493	11.0881
4.70066	11.1674
4.69641	11.3131
4.69216	11.4485
4.68791	11.5841
4.68368	11.8506
4.67945	12.097
4.67523	12.2413
4.67102	12.4823
4.66682	12.6482
4.66262	12.7492
4.65843	12.9568
4.65425	13.1432
4.65007	13.306
4.64591	13.4552
4.64175	13.6982
4.6376	13.9292
4.63345	14.0358
4.62932	14.2522
4.62519	14.5398
4.62106	14.7734
4.61695	14.9329
4.61284	15.0761
4.60874	15.1981
4.60465	15.3919
4.60056	15.5542
4.59648	15.708
4.59241	15.8658
4.58835	15.9385
4.58429	15.937
4.58024	15.9224
4.5762	15.9537
4.57216	16.0355
4.56814	16.0959
4.56411	16.2133
4.5601	16.3075
4.55609	16.2988
4.55209	16.2332
4.5481	16.2304
4.54411	16.3159
4.54013	16.3765
4.53616	16.3531
4.5322	16.3651
4.52824	16.4573
4.52429	16.4734
4.52034	16.3925
4.51641	16.4145
4.51247	16.4766
4.50855	16.3814
4.50463	16.3274
4.50072	16.4581
4.49682	16.6896
4.49292	16.8934
4.48903	17.0765
4.48515	17.2211
4.48127	17.4023
4.4774	17.6306
4.47354	17.8734
4.46968	18.0451
4.46584	18.1525
4.46199	18.3139
4.45815	18.6093
4.45432	18.897
4.4505	19.0556
4.44668	19.2089
4.44287	19.501
4.43907	19.7548
4.43527	20.0468
4.43148	20.3359
4.4277	20.5067
4.42392	20.7435
4.42015	20.988
4.41638	21.2029
4.41262	21.3692
4.40887	21.6217
4.40513	21.9369
4.40139	22.1969
4.39765	22.395
4.39393	22.6312
4.39021	22.9625
4.38649	23.2423
4.38278	23.5187
4.37908	23.7942
4.37539	24.0361
4.3717	24.2694
4.36801	24.4916
4.36434	24.7447
4.36067	24.9937
4.357	25.1441
4.35335	25.285
4.34969	25.4699
4.34605	25.6265
4.34241	25.8411
4.33877	26.0262
4.33514	26.1295
4.33152	26.2461
4.32791	26.3313
4.3243	26.4862
4.32069	26.6846
4.3171	26.8208
4.31351	27.0074
4.30992	27.1377
4.30634	27.1893
4.30277	27.2601
4.2992	27.3968
4.29564	27.5219
4.29208	27.661
4.28853	27.7836
4.28499	27.8936
4.28145	28.0088
4.27792	28.0749
4.27439	28.109
4.27087	28.1468
4.26735	28.2319
4.26384	28.3002
4.26034	28.2559
4.25684	28.2495
4.25335	28.3565
4.24986	28.518
4.24638	28.6457
4.24291	28.7543
4.23944	28.8762
4.23598	28.9667
4.23252	29.0123
4.22906	29.0742
4.22562	29.0803
4.22218	29.0865
4.21874	29.0676
4.21531	29.0612
4.21189	29.0598
4.20847	29.0974
4.20506	29.1041
4.20165	29.0481
4.19825	28.9871
4.19485	29.0541
4.19146	29.1134
4.18807	29.1897
4.18469	29.2805
4.18132	29.2968
4.17795	29.3327
4.17458	29.3005
4.17123	29.2761
4.16787	29.3627
4.16453	29.4249
4.16118	29.4741
4.15785	29.4859
4.15451	29.4846
4.15119	29.4421
4.14787	29.4595
4.14455	29.4827
4.14124	29.4814
4.13794	29.5133
4.13464	29.4586
4.13134	29.3783
4.12805	29.4046
4.12477	29.4204
4.12149	29.3744
4.11822	29.3334
4.11495	29.3269
4.11168	29.2743
4.10843	29.1817
4.10517	29.1441
4.10192	29.144
4.09868	29.1099
4.09545	29.0375
4.09221	28.9388
4.08899	28.9304
4.08576	28.8634
4.08255	28.7292
4.07933	28.6171
4.07613	28.5743
4.07292	28.5499
4.06973	28.6117
4.06654	28.6129
4.06335	28.5474
4.06017	28.5616
4.05699	28.5292
4.05382	28.4745
4.05065	28.4258
4.04749	28.4107
4.04433	28.4012
4.04118	28.3543
4.03803	28.3346
4.03489	28.3895
4.03175	28.4707
4.02862	28.5045
4.02549	28.6265
4.02237	28.7754
4.01925	28.9626
4.01614	29.1128
4.01303	29.213
4.00993	29.3566
4.00683	29.546
4.00373	29.6811
4.00064	29.7554
3.99756	29.7912
3.99448	29.7456
3.9914	29.6492
3.98833	29.4974
3.98527	29.1958
3.98221	28.8503
3.97915	28.7142
3.9761	28.8383
3.97305	29.131
3.97001	29.4725
3.96697	29.8494
3.96394	30.2344
3.96091	30.4947
3.95789	30.5478
3.95487	30.5137
3.95186	30.5693
3.94885	30.5525
3.94584	30.4836
3.94284	30.4568
3.93984	30.5081
3.93685	30.5768
3.93386	30.4465
3.93088	30.4191
3.9279	30.5476
3.92493	30.6239
3.92196	30.6965
3.919	30.8086
3.91604	30.9127
3.91308	31.0006
3.91013	31.0782
3.90718	31.1655
3.90424	31.227
3.9013	31.1999
3.89837	31.1994
3.89544	31.2316
3.89252	31.2783
3.8896	31.319
3.88668	31.3499
3.88377	31.4139
3.88086	31.4052
3.87796	31.2976
3.87506	31.2552
3.87217	31.1832
3.86928	31.0224
3.86639	30.8584
3.86351	30.7211
3.86064	30.6121
3.85776	30.421
3.8549	30.268
3.85203	30.1285
3.84917	29.9283
3.84631	29.6501
3.84346	29.47
3.84062	29.3391
3.83777	29.1227
3.83494	28.9348
3.8321	28.8042
3.82927	28.584
3.82644	28.3261
3.82362	28.171
3.82081	28.0603
3.81799	27.9573
3.81518	27.7856
3.81238	27.5939
3.80958	27.4991
3.80678	27.448
3.80399	27.3494
3.8012	27.2371
3.79841	27.2574
3.79563	27.2038
3.79286	27.1358
3.79008	27.1266
3.78731	27.1788
3.78455	27.2489
3.78179	27.1722
3.77903	27.1293
3.77628	27.2504
3.77353	27.3401
3.77079	27.3327
3.76805	27.3768
3.76531	27.5432
3.76258	27.6572
3.75985	27.7096
3.75713	27.7719
3.7544	27.7866
3.75169	27.8778
3.74898	27.9924
3.74627	28.0219
3.74356	28.0589
3.74086	28.0823
3.73816	28.0571
3.73547	28.0377
3.73278	28.0354
3.7301	27.9889
3.72741	28.033
3.72474	28.0921
3.72206	28.0545
3.71939	27.9887
3.71673	27.9274
3.71406	27.7945
3.71141	27.6555
3.70875	27.5526
3.7061	27.4603
3.70345	27.3593
3.70081	27.1982
3.69817	27.0678
3.69553	27.0156
3.6929	26.8948
3.69027	26.6986
3.68765	26.5595
3.68503	26.3961
3.68241	26.2633
3.6798	26.0612
3.67719	25.8508
3.67458	25.772
3.67198	25.665
3.66938	25.5662
3.66678	25.4916
3.66419	25.4524
3.66161	25.3442
3.65902	25.295
3.65644	25.292
3.65387	25.284
3.65129	25.251
3.64872	25.2455
3.64616	25.2697
3.64359	25.2584
3.64103	25.2903
3.63848	25.3899
3.63593	25.489
3.63338	25.6432
3.63084	25.7271
3.6283	25.7414
3.62576	25.7371
3.62322	25.8294
3.62069	25.9482
3.61817	25.9796
3.61564	26.0351
3.61312	26.1631
3.61061	26.1834
3.6081	26.1675
3.60559	26.1914
3.60308	26.3
3.60058	26.3028
3.59808	26.2344
3.59558	26.2306
3.59309	26.2356
3.59061	26.2375
3.58812	26.206
3.58564	26.1346
3.58316	26.0961
3.58069	26.0797
3.57822	26.0484
3.57575	25.921
3.57328	25.8452
3.57082	25.826
3.56836	25.7431
3.56591	25.6089
3.56346	25.5931
3.56101	25.5775
3.55857	25.4767
3.55613	25.3834
3.55369	25.3521
3.55126	25.3025
3.54883	25.2487
3.5464	25.178
3.54397	25.0619
3.54155	24.9177
3.53914	24.8663
3.53672	24.8261
3.53431	24.7635
3.5319	24.6545
3.5295	24.5876
3.5271	24.637
3.5247	24.6238
3.52231	24.5917
3.51991	24.6409
3.51753	24.7096
3.51514	24.7148
3.51276	24.7166
3.51038	24.6108
3.50801	24.4607
3.50563	24.4527
3.50327	24.5069
3.5009	24.4819
3.49854	24.4327
3.49618	24.3517
3.49382	24.231
3.49147	24.136
3.48912	24.1417
3.48677	24.0533
3.48443	23.9423
3.48209	23.8799
3.47975	23.6943
