Name: Basalt
Type: Rock
Class: Igneous
Subclass:  Mafic 
Particle Size: Solid surface
Sample No.: Ward35.txt
Owner: JPL
Wavelength range:  IR  
Origin: Ward's Collection of American Rocks.  Sample locality - Chimney Rock, Somerset County, New Jersey.
Collected by:  Ward's Natural Science
Description: A greenish-black rock with aphanitic texture, and occasional
red bands due to iron oxide stain.
Geologic Age - Upper Triassic.



Measurement: Hemispherical reflectance
First Column: X
Second Column: Y
X Units: Wavelength (micrometers)
Y Units: Reflectance (percent)
First X Value: 15.3871
Last X Value: 1.9998
Number of X Values: 2257
Additional information: None

15.3871   2.81595
15.3416   3.16031
15.2964   3.11190
15.2514   2.76264
15.2066   2.56918
15.1622   3.22930
15.1180   3.12878
15.0740   2.28037
15.0303   2.08354
14.9869   3.20585
14.9437   3.75605
14.9008   3.28002
14.8581   3.30142
14.8156   3.54103
14.7734   3.20215
14.7314   2.87757
14.6897   2.44722
14.6482   3.03175
14.6069   3.87902
14.5659   3.22009
14.5251   2.54341
14.4845   2.44100
14.4442   2.73564
14.4041   2.57868
14.3642   2.67869
14.3245   2.79412
14.2850   2.72403
14.2458   2.67544
14.2068   3.08530
14.1679   3.09927
14.1293   2.84517
14.0909   3.15693
14.0528   3.00933
14.0148   2.83062
13.9770   2.64963
13.9394   2.64459
13.9021   3.03379
13.8649   3.15538
13.8279   3.14910
13.7911   3.00396
13.7546   2.87456
13.7182   2.97397
13.6820   3.06150
13.6460   3.12246
13.6101   3.35685
13.5745   3.36239
13.5391   3.29537
13.5038   3.19286
13.4687   3.13668
13.4339   3.07041
13.3991   2.91853
13.3646   3.04007
13.3302   3.22723
13.2961   3.42289
13.2621   3.36721
13.2282   2.91375
13.1946   2.79948
13.1611   3.08077
13.1278   3.40571
13.0946   3.48454
13.0616   3.16222
13.0288   3.22030
12.9962   3.32272
12.9637   3.51998
12.9313   3.45537
12.8992   3.23442
12.8672   3.26753
12.8353   3.21553
12.8036   3.54354
12.7721   4.08885
12.7407   4.08162
12.7095   3.83541
12.6784   3.90646
12.6475   4.06248
12.6167   3.78354
12.5861   3.58688
12.5556   3.27462
12.5253   3.56594
12.4951   4.07415
12.4651   4.25936
12.4352   4.00671
12.4054   3.66252
12.3758   3.91810
12.3463   4.25292
12.3170   3.44265
12.2878   3.36521
12.2588   3.78771
12.2299   3.73335
12.2011   3.70302
12.1725   4.06391
12.1439   4.42874
12.1156   4.46380
12.0873   4.38741
12.0592   4.39693
12.0312   4.51978
12.0034   4.78106
11.9757   5.02103
11.9481   4.84667
11.9206   4.65493
11.8933   4.72140
11.8661   5.02762
11.8390   5.07794
11.8120   4.74951
11.7852   4.82580
11.7584   4.96302
11.7318   5.03070
11.7053   5.36012
11.6790   5.50297
11.6527   5.59910
11.6266   5.66692
11.6006   5.64783
11.5747   5.70075
11.5489   6.12660
11.5233   6.38167
11.4977   6.08673
11.4723   5.99960
11.4469   6.36277
11.4217   6.60611
11.3966   6.51719
11.3716   6.47172
11.3468   6.58116
11.3220   6.69781
11.2973   6.63520
11.2728   6.49925
11.2483   6.70926
11.2240   6.73483
11.1997   6.50550
11.1756   6.09151
11.1515   5.95554
11.1276   6.54384
11.1038   6.88917
11.0801   6.69251
11.0564   6.73148
11.0329   6.94104
11.0095   6.98747
10.9862   7.11669
10.9629   7.36246
10.9398   7.59201
10.9168   7.40547
10.8938   7.03072
10.8710   7.21902
10.8483   7.76340
10.8256   8.01226
10.8031   7.99104
10.7806   7.89680
10.7582   7.78769
10.7360   7.72210
10.7138   7.96779
10.6917   7.94219
10.6697   7.72279
10.6478   7.62157
10.6260   7.84141
10.6042   8.11739
10.5826   8.53655
10.5610   8.74432
10.5396   8.72957
10.5182   8.50095
10.4969   8.39846
10.4757   8.60337
10.4546   8.77971
10.4335   8.58902
10.4126   8.72994
10.3917   8.94797
10.3709   8.93391
10.3502   9.20197
10.3296   9.35515
10.3091   9.37957
10.2886   9.40543
10.2683   9.77146
10.2480   9.99063
10.2277  10.02810
10.2076  10.06000
10.1876  10.29800
10.1676  10.60640
10.1477  10.74910
10.1279  10.80810
10.1081  10.94870
10.0885  11.34790
10.0689  11.49920
10.0494  11.85000
10.0299  12.28050
10.0106  12.30240
 9.9913  12.25530
 9.9720  12.64210
 9.9529  12.98770
 9.9338  13.11320
 9.9148  13.37150
 9.8959  13.70530
 9.8771  13.99750
 9.8583  14.46830
 9.8396  14.62650
 9.8210  14.49490
 9.8024  14.54420
 9.7839  14.79090
 9.7655  14.87660
 9.7471  14.97010
 9.7288  15.20810
 9.7106  15.22460
 9.6925  15.17500
 9.6744  15.18300
 9.6564  15.22230
 9.6384  15.34550
 9.6205  15.01870
 9.6027  14.72220
 9.5850  14.56740
 9.5673  14.45060
 9.5497  14.24530
 9.5321  13.80300
 9.5146  13.37480
 9.4972  13.44910
 9.4798  13.49610
 9.4625  13.07680
 9.4453  12.56380
 9.4281  12.27060
 9.4110  11.93290
 9.3940  11.63950
 9.3770  11.58730
 9.3600  11.46770
 9.3432  11.12750
 9.3264  10.71970
 9.3096  10.27670
 9.2930   9.91301
 9.2763   9.62107
 9.2598   9.50286
 9.2432   9.38509
 9.2268   9.12929
 9.2104   8.80577
 9.1941   8.42236
 9.1778   8.20882
 9.1616   8.15718
 9.1454   7.95794
 9.1293   7.69750
 9.1133   7.32263
 9.0973   6.76794
 9.0814   6.70292
 9.0655   6.67671
 9.0497   6.40076
 9.0339   6.31185
 9.0182   6.13826
 9.0025   5.81329
 8.9870   6.03987
 8.9714   6.20219
 8.9559   5.73567
 8.9405   5.58543
 8.9251   5.75838
 8.9097   5.44523
 8.8945   5.04097
 8.8792   4.96223
 8.8641   4.28070
 8.8489   3.87138
 8.8338   4.28982
 8.8188   4.35661
 8.8039   3.89546
 8.7889   3.61775
 8.7741   3.52799
 8.7592   3.50411
 8.7445   3.63825
 8.7297   3.73950
 8.7151   3.73585
 8.7005   3.83690
 8.6859   3.55002
 8.6714   3.59289
 8.6569   3.40926
 8.6425   3.07643
 8.6281   2.95465
 8.6137   2.99490
 8.5994   3.12661
 8.5852   3.19152
 8.5710   3.12733
 8.5569   3.10520
 8.5428   3.10632
 8.5287   3.18658
 8.5147   3.50823
 8.5008   3.48824
 8.4869   3.05518
 8.4730   3.10176
 8.4592   3.63384
 8.4454   3.50741
 8.4316   3.26647
 8.4180   2.95921
 8.4043   2.81456
 8.3907   3.04077
 8.3772   2.95847
 8.3637   2.67590
 8.3502   2.79421
 8.3368   2.71670
 8.3234   2.64652
 8.3100   2.64337
 8.2967   2.64311
 8.2835   2.56005
 8.2703   2.57161
 8.2571   2.80631
 8.2440   2.97340
 8.2309   2.92956
 8.2179   2.63342
 8.2049   2.28594
 8.1919   2.39740
 8.1790   2.37511
 8.1661   2.23114
 8.1532   2.29717
 8.1404   2.13149
 8.1277   1.85498
 8.1150   1.87051
 8.1023   1.94647
 8.0897   1.97009
 8.0770   2.03499
 8.0645   2.11267
 8.0520   1.85026
 8.0395   1.75036
 8.0270   1.76494
 8.0146   1.65565
 8.0023   1.81360
 7.9899   2.00540
 7.9776   2.07607
 7.9654   2.08874
 7.9532   1.88786
 7.9410   1.73779
 7.9288   1.90191
 7.9167   1.89418
 7.9047   1.66192
 7.8926   1.77717
 7.8807   1.99917
 7.8687   1.93070
 7.8568   1.83519
 7.8449   1.93176
 7.8330   1.82443
 7.8212   1.68017
 7.8094   2.00509
 7.7977   2.03787
 7.7860   1.89827
 7.7743   1.95496
 7.7627   1.92464
 7.7511   1.86849
 7.7395   1.85307
 7.7280   2.08258
 7.7165   2.11865
 7.7050   2.13697
 7.6936   2.15515
 7.6822   2.10623
 7.6708   1.82558
 7.6595   1.74961
 7.6482   1.93011
 7.6369   1.93264
 7.6257   1.88848
 7.6145   1.93415
 7.6033   2.00428
 7.5922   2.16682
 7.5811   2.29158
 7.5700   2.28633
 7.5590   2.21336
 7.5480   2.09117
 7.5370   2.15729
 7.5261   2.06060
 7.5152   1.97757
 7.5043   2.04927
 7.4935   2.04704
 7.4826   2.17174
 7.4718   2.40373
 7.4611   2.34298
 7.4504   2.21980
 7.4397   2.14741
 7.4290   2.21231
 7.4184   2.27445
 7.4078   2.07688
 7.3972   2.22269
 7.3867   2.41385
 7.3762   2.27908
 7.3657   2.07178
 7.3553   2.14986
 7.3449   2.38768
 7.3345   2.34793
 7.3241   2.38951
 7.3138   2.64090
 7.3035   2.54170
 7.2932   2.40634
 7.2830   2.35152
 7.2727   2.42773
 7.2626   2.45094
 7.2524   2.46946
 7.2423   2.37845
 7.2322   2.29854
 7.2221   2.34410
 7.2120   2.38596
 7.2020   2.54296
 7.1921   2.47890
 7.1821   2.44636
 7.1722   2.68524
 7.1623   2.69288
 7.1524   2.47886
 7.1425   2.42539
 7.1327   2.60943
 7.1229   2.62503
 7.1131   2.60547
 7.1034   2.60317
 7.0937   2.54269
 7.0840   2.57104
 7.0743   2.71610
 7.0647   2.85092
 7.0551   2.73140
 7.0455   2.75532
 7.0359   2.82771
 7.0264   2.78235
 7.0169   2.74504
 7.0074   2.62887
 6.9979   2.51708
 6.9885   2.74175
 6.9791   2.93839
 6.9697   2.93164
 6.9604   2.78225
 6.9510   2.56067
 6.9417   2.57347
 6.9324   2.62600
 6.9232   2.88973
 6.9140   2.85377
 6.9047   2.66292
 6.8956   2.85471
 6.8864   3.09310
 6.8773   3.08292
 6.8682   3.11871
 6.8591   3.14986
 6.8500   2.87897
 6.8410   2.71521
 6.8320   2.75252
 6.8230   2.89273
 6.8140   2.81702
 6.8051   2.64127
 6.7962   2.86558
 6.7873   3.06082
 6.7784   2.94539
 6.7695   3.06983
 6.7607   3.01185
 6.7519   2.87414
 6.7431   2.73993
 6.7344   2.73264
 6.7256   2.88286
 6.7169   2.93805
 6.7082   2.91719
 6.6996   2.99023
 6.6909   2.99970
 6.6823   3.13461
 6.6737   3.34442
 6.6651   3.31878
 6.6566   2.94952
 6.6480   2.87861
 6.6395   2.92985
 6.6310   2.93555
 6.6226   3.02339
 6.6141   3.14793
 6.6057   3.32647
 6.5973   3.13969
 6.5889   2.81782
 6.5805   2.83937
 6.5722   2.73733
 6.5639   2.72620
 6.5556   2.93563
 6.5473   2.93879
 6.5390   2.96557
 6.5308   2.96171
 6.5226   2.82135
 6.5144   3.03729
 6.5062   3.17382
 6.4981   2.95495
 6.4900   2.98362
 6.4818   3.00335
 6.4737   2.70247
 6.4657   2.79620
 6.4576   2.93645
 6.4496   2.88405
 6.4416   2.82972
 6.4336   2.83731
 6.4256   2.79506
 6.4177   2.86338
 6.4097   2.80288
 6.4018   2.75106
 6.3939   2.74943
 6.3860   2.57711
 6.3782   2.35859
 6.3704   2.24966
 6.3625   2.42728
 6.3547   2.45889
 6.3470   2.63438
 6.3392   2.68402
 6.3315   2.67175
 6.3237   2.72476
 6.3160   2.71740
 6.3083   2.64193
 6.3007   2.54882
 6.2930   2.50332
 6.2854   2.51767
 6.2778   2.45302
 6.2702   2.51985
 6.2626   2.62737
 6.2551   2.46370
 6.2476   2.33203
 6.2400   2.37811
 6.2325   2.42920
 6.2251   2.45826
 6.2176   2.43267
 6.2101   2.36623
 6.2027   2.37893
 6.1953   2.55119
 6.1879   2.62573
 6.1805   2.53612
 6.1732   2.48733
 6.1658   2.54593
 6.1585   2.40620
 6.1512   2.24689
 6.1439   2.16410
 6.1367   2.37151
 6.1294   2.42521
 6.1222   2.31927
 6.1149   2.40732
 6.1077   2.22679
 6.1006   2.04652
 6.0934   1.95535
 6.0862   2.30258
 6.0791   2.69102
 6.0720   2.45286
 6.0649   2.25214
 6.0578   2.30943
 6.0507   2.34498
 6.0437   2.47195
 6.0366   2.48414
 6.0296   2.35952
 6.0226   2.31008
 6.0156   2.09297
 6.0087   1.93055
 6.0017   2.07215
 5.9948   2.26975
 5.9878   2.11622
 5.9809   2.08011
 5.9740   2.24041
 5.9672   2.18396
 5.9603   2.22653
 5.9535   2.29805
 5.9466   2.37956
 5.9398   2.44256
 5.9330   2.40147
 5.9262   2.49449
 5.9195   2.48888
 5.9127   2.40984
 5.9060   2.21502
 5.8993   2.06550
 5.8926   2.03789
 5.8859   2.43049
 5.8792   2.72841
 5.8726   2.52485
 5.8659   2.35588
 5.8593   2.43492
 5.8527   2.47212
 5.8461   2.43047
 5.8395   2.37357
 5.8329   2.43353
 5.8264   2.31249
 5.8198   2.34716
 5.8133   2.65437
 5.8068   2.83765
 5.8003   2.79214
 5.7938   2.61212
 5.7874   2.52697
 5.7809   2.56670
 5.7745   2.56342
 5.7680   2.60908
 5.7616   2.56115
 5.7552   2.64082
 5.7489   2.84011
 5.7425   2.70736
 5.7361   2.55041
 5.7298   2.38714
 5.7235   2.57834
 5.7172   2.74701
 5.7109   2.90361
 5.7046   2.89088
 5.6983   2.73728
 5.6921   2.60669
 5.6858   2.69598
 5.6796   2.69637
 5.6734   2.78165
 5.6672   3.07361
 5.6610   3.15407
 5.6548   2.92763
 5.6487   2.60693
 5.6425   2.79632
 5.6364   2.81955
 5.6303   2.75913
 5.6242   2.83464
 5.6181   2.90183
 5.6120   3.01574
 5.6059   3.03049
 5.5999   2.88255
 5.5938   2.61723
 5.5878   2.50824
 5.5818   2.44597
 5.5758   2.64827
 5.5698   2.96402
 5.5638   3.15714
 5.5578   3.05078
 5.5519   2.95565
 5.5460   3.06756
 5.5400   2.90308
 5.5341   2.80971
 5.5282   3.11552
 5.5223   3.20877
 5.5164   2.98978
 5.5106   2.89550
 5.5047   2.89815
 5.4989   2.92551
 5.4931   3.00006
 5.4873   3.12762
 5.4815   3.27293
 5.4757   3.18378
 5.4699   3.07581
 5.4641   3.13902
 5.4584   3.13463
 5.4527   3.03514
 5.4469   3.03699
 5.4412   3.01073
 5.4355   3.14883
 5.4298   3.29485
 5.4241   3.23274
 5.4185   3.05546
 5.4128   3.01578
 5.4072   2.94917
 5.4015   2.85815
 5.3959   2.93279
 5.3903   3.10609
 5.3847   3.25777
 5.3791   3.30656
 5.3735   3.27402
 5.3680   3.21117
 5.3624   3.24038
 5.3569   3.18197
 5.3514   3.12475
 5.3458   3.14157
 5.3403   3.38074
 5.3348   3.41543
 5.3294   3.30548
 5.3239   3.38455
 5.3184   3.48750
 5.3130   3.38290
 5.3075   3.28041
 5.3021   3.15466
 5.2967   3.05989
 5.2913   3.22572
 5.2859   3.35875
 5.2805   3.31027
 5.2751   3.17388
 5.2698   3.07336
 5.2644   3.18953
 5.2591   3.31653
 5.2538   3.25988
 5.2485   3.23494
 5.2431   3.30944
 5.2378   3.24682
 5.2326   3.24182
 5.2273   3.35824
 5.2220   3.44880
 5.2168   3.54067
 5.2115   3.56323
 5.2063   3.48841
 5.2011   3.43139
 5.1959   3.19865
 5.1907   3.05364
 5.1855   3.10024
 5.1803   3.10038
 5.1751   3.27254
 5.1700   3.55296
 5.1648   3.54966
 5.1597   3.33010
 5.1545   3.38233
 5.1494   3.54633
 5.1443   3.54499
 5.1392   3.36795
 5.1341   3.11360
 5.1291   3.25874
 5.1240   3.43441
 5.1189   3.40346
 5.1139   3.25334
 5.1088   3.27486
 5.1038   3.56799
 5.0988   3.74261
 5.0938   3.67301
 5.0888   3.46188
 5.0838   3.31951
 5.0788   3.52149
 5.0738   3.54553
 5.0689   3.29674
 5.0639   3.31609
 5.0590   3.35687
 5.0541   3.45881
 5.0491   3.50808
 5.0442   3.52373
 5.0393   3.56495
 5.0344   3.58562
 5.0296   3.62899
 5.0247   3.65101
 5.0198   3.57175
 5.0150   3.70580
 5.0101   3.76288
 5.0053   3.57272
 5.0004   3.36835
 4.9956   3.36966
 4.9908   3.60859
 4.9860   3.69323
 4.9812   3.56457
 4.9765   3.51622
 4.9717   3.38002
 4.9669   3.23376
 4.9622   3.37528
 4.9574   3.56876
 4.9527   3.46669
 4.9480   3.35919
 4.9432   3.57889
 4.9385   3.65192
 4.9338   3.52619
 4.9291   3.54066
 4.9245   3.78631
 4.9198   3.79275
 4.9151   3.61183
 4.9105   3.52615
 4.9058   3.50412
 4.9012   3.51626
 4.8966   3.48930
 4.8919   3.56365
 4.8873   3.67098
 4.8827   3.58936
 4.8781   3.71424
 4.8736   3.91814
 4.8690   3.72127
 4.8644   3.49304
 4.8599   3.37418
 4.8553   3.44634
 4.8508   3.68291
 4.8462   3.74023
 4.8417   3.72678
 4.8372   3.83350
 4.8327   3.71706
 4.8282   3.64053
 4.8237   3.66774
 4.8192   3.61266
 4.8147   3.74778
 4.8103   3.74058
 4.8058   3.79937
 4.8014   3.79307
 4.7969   3.57530
 4.7925   3.61485
 4.7881   3.72224
 4.7836   3.75322
 4.7792   3.74463
 4.7748   3.61299
 4.7704   3.54536
 4.7660   3.62918
 4.7617   3.71473
 4.7573   3.59451
 4.7530   3.46576
 4.7486   3.66129
 4.7443   3.74571
 4.7399   3.58421
 4.7356   3.54729
 4.7313   3.57361
 4.7270   3.85988
 4.7226   3.98849
 4.7184   3.90900
 4.7141   3.90766
 4.7098   3.99720
 4.7055   4.04081
 4.7012   3.94241
 4.6970   3.70377
 4.6927   3.55183
 4.6885   3.68318
 4.6842   3.79816
 4.6800   3.80192
 4.6758   3.75460
 4.6716   3.83289
 4.6674   3.82780
 4.6632   3.82151
 4.6590   3.94754
 4.6548   3.94118
 4.6506   3.96414
 4.6465   4.04794
 4.6423   4.17114
 4.6382   4.26852
 4.6340   4.21388
 4.6299   3.97121
 4.6258   3.79995
 4.6216   3.67789
 4.6175   3.65825
 4.6134   3.88422
 4.6093   4.00547
 4.6052   3.91754
 4.6011   3.98835
 4.5971   4.12821
 4.5930   4.17651
 4.5889   4.16371
 4.5849   4.07563
 4.5808   4.01838
 4.5768   4.00705
 4.5727   3.83492
 4.5687   3.86185
 4.5647   4.03253
 4.5607   4.12495
 4.5567   4.06071
 4.5526   3.85483
 4.5487   3.89229
 4.5447   4.07031
 4.5407   3.99152
 4.5367   4.06862
 4.5328   4.26155
 4.5288   4.16111
 4.5248   4.21375
 4.5209   3.93898
 4.5170   3.67044
 4.5130   3.66797
 4.5091   3.85132
 4.5052   4.11284
 4.5013   4.27879
 4.4974   4.09517
 4.4935   3.93184
 4.4896   4.12809
 4.4857   4.35830
 4.4818   4.16298
 4.4779   3.93240
 4.4741   4.10741
 4.4702   4.19303
 4.4664   4.18298
 4.4625   4.10004
 4.4587   4.26370
 4.4549   4.37912
 4.4510   4.08966
 4.4472   3.95436
 4.4434   3.97297
 4.4396   3.98436
 4.4358   4.17222
 4.4320   4.29666
 4.4282   4.33077
 4.4245   4.44918
 4.4207   4.38995
 4.4169   4.12040
 4.4132   4.16900
 4.4094   4.29755
 4.4057   4.24057
 4.4019   4.25168
 4.3982   4.14137
 4.3945   4.06120
 4.3907   4.04710
 4.3870   4.17995
 4.3833   4.38683
 4.3796   4.21477
 4.3759   4.04053
 4.3722   4.00531
 4.3685   4.28009
 4.3649   4.46114
 4.3612   4.24308
 4.3575   3.99633
 4.3539   3.97574
 4.3502   4.08869
 4.3466   4.14157
 4.3429   4.33529
 4.3393   4.52854
 4.3357   4.65984
 4.3320   4.46902
 4.3284   4.23834
 4.3248   4.15371
 4.3212   4.25499
 4.3176   4.32651
 4.3140   4.23238
 4.3105   3.93780
 4.3069   4.05983
 4.3033   4.16566
 4.2997   4.10144
 4.2962   4.28446
 4.2926   4.43250
 4.2890   4.38617
 4.2855   4.16105
 4.2820   4.14024
 4.2784   4.09723
 4.2749   4.15746
 4.2714   4.24769
 4.2679   4.32925
 4.2644   4.18165
 4.2609   4.26972
 4.2574   4.34160
 4.2539   4.24587
 4.2504   4.20502
 4.2469   4.36937
 4.2434   4.29568
 4.2400   4.06450
 4.2365   4.16028
 4.2330   4.28794
 4.2296   4.26088
 4.2261   4.51465
 4.2227   4.75570
 4.2193   4.51796
 4.2158   4.20549
 4.2124   4.26244
 4.2090   4.30639
 4.2056   4.13302
 4.2022   4.00740
 4.1988   4.15839
 4.1954   4.30503
 4.1920   4.16573
 4.1886   4.22606
 4.1852   4.29074
 4.1818   4.06655
 4.1785   4.03763
 4.1751   4.36931
 4.1717   4.62411
 4.1684   4.57425
 4.1650   4.33547
 4.1617   4.45622
 4.1584   4.69476
 4.1550   4.64689
 4.1517   4.43459
 4.1484   4.29189
 4.1451   4.28146
 4.1418   4.34321
 4.1384   4.43041
 4.1351   4.54412
 4.1319   4.69353
 4.1286   4.65593
 4.1253   4.28438
 4.1220   4.01732
 4.1187   3.83033
 4.1155   4.20877
 4.1122   4.78779
 4.1089   4.93862
 4.1057   4.78156
 4.1024   4.66418
 4.0992   4.51977
 4.0959   4.53199
 4.0927   4.64761
 4.0895   4.45617
 4.0863   4.26228
 4.0830   4.52730
 4.0798   4.69896
 4.0766   4.80186
 4.0734   4.90625
 4.0702   4.76953
 4.0670   4.50257
 4.0639   4.13473
 4.0607   4.06773
 4.0575   4.22060
 4.0543   4.41880
 4.0511   4.48651
 4.0480   4.53337
 4.0448   4.60107
 4.0417   4.40279
 4.0385   4.25752
 4.0354   4.33081
 4.0323   4.56568
 4.0291   4.75333
 4.0260   4.72897
 4.0229   4.60721
 4.0197   4.52968
 4.0166   4.66387
 4.0135   4.72443
 4.0104   4.64773
 4.0073   4.58519
 4.0042   4.75475
 4.0011   4.53511
 3.9981   4.42714
 3.9950   4.74185
 3.9919   4.64494
 3.9888   4.45413
 3.9857   4.40241
 3.9827   4.30734
 3.9796   4.63400
 3.9766   4.60061
 3.9735   4.47852
 3.9705   4.37862
 3.9675   4.40594
 3.9644   4.72261
 3.9614   4.58026
 3.9584   4.17274
 3.9554   4.31731
 3.9523   4.53501
 3.9493   4.45335
 3.9463   4.59794
 3.9433   4.56301
 3.9403   4.28412
 3.9373   4.37494
 3.9343   4.67404
 3.9314   4.70650
 3.9284   4.80942
 3.9254   4.71829
 3.9224   4.57887
 3.9195   4.62957
 3.9165   4.61212
 3.9136   4.69398
 3.9106   4.43075
 3.9077   4.06684
 3.9047   4.09272
 3.9018   4.37458
 3.8988   4.57604
 3.8959   4.71080
 3.8930   5.01070
 3.8901   4.80775
 3.8872   4.32845
 3.8842   4.33349
 3.8813   4.25151
 3.8784   4.21415
 3.8755   4.29781
 3.8726   4.47734
 3.8697   4.51599
 3.8669   4.36964
 3.8640   4.45647
 3.8611   4.44207
 3.8582   4.48018
 3.8554   4.71570
 3.8525   4.69938
 3.8496   4.64157
 3.8468   4.72046
 3.8439   4.50096
 3.8411   4.45716
 3.8382   4.39226
 3.8354   4.39132
