Name: Sandy Loam/alluvium
Type:  Soils
Class: Entisol
Subclass: 
Particle Size:  see additional information
Sample No.: fgg008
Owner:  University of NSW
Wavelength range:  All
Origin: Fowlers Gap, western New South Wales, Australia
Hewson(1998) PhD thesis 
Description: Parent material consists of aeolian silts/clays and sandstone debris. Red-orange loam.

Physiography: Depositional erosional scald along footslopes of sandstone hillslopes (Nundooka Sandstone).



Measurement: Directional hemispherical reflectance 
First Column:  X
Second Column:  Y
X Units:  Wavelength (micrometers)
Y Units:  Reflectance (percent)
First X Value:  14.0131
Last X Value:  2.00032
Number of X Values:  2223
Additional information:  fgg008a.txt
	
14.0131	1.46273
13.9753	1.39009
13.9377	1.32734
13.9004	1.25690
13.8632	1.08276
13.8262	1.16510
13.7895	1.33591
13.7529	1.38843
13.7165	1.37547
13.6803	1.36867
13.6443	1.36874
13.6085	1.50240
13.5729	1.61733
13.5374	1.55919
13.5022	1.49925
13.4671	1.50828
13.4322	1.54234
13.3975	1.47919
13.3630	1.55032
13.3286	1.61225
13.2944	1.50875
13.2604	1.50122
13.2266	1.58286
13.1930	1.60831
13.1595	1.65456
13.1262	1.62721
13.0930	1.81675
13.0600	1.90837
13.0272	1.73896
12.9946	1.72675
12.9621	1.81373
12.9298	1.95469
12.8976	2.12471
12.8656	2.32945
12.8337	2.23866
12.8021	2.11992
12.7705	2.04735
12.7391	1.93048
12.7079	1.79988
12.6769	1.75733
12.6459	1.83521
12.6152	1.77104
12.5845	1.75075
12.5541	1.81765
12.5238	1.75958
12.4936	1.79796
12.4635	1.79049
12.4337	1.70747
12.4039	1.59244
12.3743	1.47678
12.3448	1.45838
12.3155	1.41910
12.2863	1.26530
12.2573	1.30219
12.2284	1.35163
12.1996	1.39267
12.1710	1.49344
12.1425	1.59327
12.1141	1.59423
12.0859	1.66919
12.0578	1.62851
12.0298	1.62806
12.0019	1.81261
11.9742	1.95412
11.9466	1.92127
11.9192	1.95277
11.8918	1.98865
11.8646	1.91223
11.8375	1.96274
11.8106	2.02178
11.7837	2.08858
11.7570	2.13939
11.7304	2.10050
11.7039	2.09003
11.6776	2.21057
11.6513	2.21085
11.6252	2.19001
11.5992	2.32215
11.5733	2.27581
11.5475	2.12084
11.5219	2.25364
11.4963	2.39492
11.4709	2.32237
11.4455	2.30912
11.4203	2.32218
11.3952	2.40805
11.3702	2.49899
11.3454	2.36712
11.3206	2.33928
11.2959	2.44823
11.2714	2.44550
11.2469	2.54154
11.2226	2.61810
11.1983	2.54313
11.1742	2.55991
11.1502	2.72374
11.1263	2.76058
11.1024	2.80694
11.0787	2.94484
11.0551	2.98617
11.0316	2.89591
11.0081	2.90558
10.9848	2.90165
10.9616	2.92177
10.9385	2.88488
10.9154	2.74536
10.8925	2.66320
10.8697	2.71708
10.8469	2.74968
10.8243	2.59454
10.8017	2.40868
10.7793	2.38797
10.7569	2.51589
10.7346	2.60744
10.7125	2.61176
10.6904	2.57333
10.6684	2.54174
10.6465	2.55187
10.6247	2.59369
10.6029	2.59084
10.5813	2.45338
10.5597	2.44996
10.5383	2.55824
10.5169	2.70355
10.4956	2.83328
10.4744	2.85218
10.4533	2.88719
10.4323	3.02225
10.4113	3.17123
10.3904	3.28259
10.3697	3.35663
10.3490	3.44850
10.3284	3.66228
10.3078	3.76399
10.2874	3.69471
10.2670	3.77391
10.2467	3.93650
10.2265	4.02417
10.2064	4.09663
10.1863	4.16801
10.1663	4.31063
10.1464	4.54375
10.1266	4.78343
10.1069	4.94469
10.0872	4.97250
10.0676	4.95223
10.0481	5.18949
10.0287	5.56249
10.0093	5.91759
9.9901	6.09398
9.9708	6.23596
9.9517	6.35159
9.9326	6.47081
9.9136	6.60249
9.8947	6.55916
9.8759	6.58917
9.8571	6.57348
9.8384	6.60773
9.8198	6.76600
9.8012	6.95842
9.7827	7.21993
9.7643	7.41745
9.7459	7.67523
9.7276	8.00183
9.7094	8.25187
9.6913	8.50921
9.6732	8.71226
9.6552	8.88233
9.6372	9.20420
9.6194	9.45881
9.6016	9.51319
9.5838	9.50620
9.5661	9.65683
9.5485	9.77761
9.5309	9.88323
9.5135	10.06620
9.4960	10.17840
9.4787	10.22470
9.4614	10.31800
9.4441	10.44010
9.4270	10.54160
9.4099	10.64420
9.3928	10.58670
9.3758	10.57400
9.3589	10.49470
9.3420	10.49570
9.3252	10.53970
9.3085	10.27100
9.2918	9.78304
9.2752	9.46423
9.2586	9.41617
9.2421	9.33172
9.2257	9.06215
9.2093	8.75523
9.1930	8.56207
9.1767	8.36155
9.1605	8.20631
9.1443	7.97183
9.1282	7.66295
9.1122	7.45431
9.0962	7.30825
9.0803	7.16773
9.0644	7.01675
9.0486	6.96691
9.0328	6.82704
9.0171	6.57497
9.0015	6.47296
8.9859	6.48158
8.9703	6.58714
8.9548	6.75494
8.9394	6.96773
8.9240	7.32987
8.9087	7.47375
8.8934	7.47955
8.8781	7.54279
8.8630	7.50421
8.8478	7.47215
8.8328	7.40272
8.8177	7.36485
8.8028	7.32919
8.7879	7.22691
8.7730	7.00094
8.7582	6.85842
8.7434	6.81182
8.7287	6.84079
8.7140	6.75954
8.6994	6.49156
8.6848	6.31801
8.6703	6.16054
8.6558	5.69537
8.6414	5.22497
8.6270	4.98036
8.6127	5.19839
8.5984	5.62279
8.5842	5.84599
8.5700	5.99790
8.5558	6.16072
8.5417	6.26693
8.5277	6.32477
8.5137	6.27519
8.4997	6.16909
8.4858	6.14748
8.4720	6.22692
8.4581	6.14798
8.4444	6.17927
8.4306	6.35546
8.4169	6.52573
8.4033	6.60436
8.3897	6.70429
8.3761	6.71542
8.3626	6.70921
8.3492	6.90363
8.3357	6.98308
8.3224	7.11215
8.3090	7.37582
8.2957	7.42371
8.2825	7.52914
8.2693	7.84884
8.2561	7.96437
8.2430	8.06429
8.2299	8.17761
8.2169	8.18375
8.2039	8.19120
8.1909	8.18489
8.1780	8.11661
8.1651	7.82996
8.1523	7.58916
8.1395	7.37530
8.1267	7.00950
8.1140	6.55043
8.1013	6.08570
8.0887	5.77499
8.0761	5.53355
8.0635	5.25096
8.0510	4.83213
8.0385	4.57721
8.0261	4.35568
8.0137	4.13442
8.0013	3.98278
7.9890	3.72093
7.9767	3.52062
7.9644	3.29360
7.9522	3.10930
7.9400	2.91834
7.9279	2.76163
7.9158	2.64511
7.9037	2.50866
7.8917	2.40778
7.8797	2.24758
7.8677	2.09033
7.8558	2.00877
7.8439	1.89387
7.8321	1.90521
7.8203	1.94165
7.8085	1.85612
7.7967	1.80756
7.7850	1.74722
7.7734	1.75140
7.7617	1.76393
7.7501	1.74608
7.7386	1.69557
7.7270	1.66040
7.7155	1.68260
7.7041	1.70663
7.6926	1.73660
7.6812	1.69253
7.6699	1.59350
7.6586	1.52331
7.6473	1.52262
7.6360	1.52083
7.6248	1.45973
7.6136	1.40927
7.6024	1.48624
7.5913	1.45250
7.5802	1.42885
7.5691	1.49284
7.5581	1.45617
7.5471	1.39440
7.5361	1.42081
7.5252	1.39258
7.5143	1.40727
7.5034	1.49099
7.4925	1.41238
7.4817	1.35907
7.4709	1.37182
7.4602	1.44140
7.4495	1.48191
7.4388	1.45232
7.4281	1.46933
7.4175	1.41886
7.4069	1.35276
7.3963	1.33269
7.3858	1.33408
7.3753	1.37102
7.3648	1.45588
7.3544	1.50100
7.3440	1.40943
7.3336	1.39257
7.3232	1.45522
7.3129	1.51379
7.3026	1.54198
7.2923	1.52315
7.2821	1.53303
7.2719	1.52508
7.2617	1.48544
7.2515	1.54716
7.2414	1.61406
7.2313	1.64448
7.2212	1.58736
7.2112	1.60899
7.2012	1.65704
7.1912	1.66391
7.1812	1.71939
7.1713	1.73528
7.1614	1.78109
7.1515	1.79107
7.1416	1.68672
7.1318	1.63205
7.1220	1.70209
7.1123	1.76493
7.1025	1.72701
7.0928	1.65337
7.0831	1.62702
7.0734	1.67368
7.0638	1.72148
7.0542	1.79995
7.0446	1.93491
7.0351	1.85597
7.0255	1.87901
7.0160	1.96251
7.0065	1.93209
6.9971	1.93219
6.9877	2.02103
6.9782	2.09560
6.9689	2.02029
6.9595	1.94774
6.9502	1.91785
6.9409	1.90044
6.9316	2.01254
6.9223	2.11176
6.9131	2.12170
6.9039	2.11113
6.8947	2.10097
6.8856	2.08413
6.8764	2.09684
6.8673	2.24640
6.8582	2.26302
6.8492	2.14603
6.8402	2.12883
6.8311	2.13223
6.8222	2.13694
6.8132	2.10586
6.8042	2.13358
6.7953	2.18689
6.7864	2.14260
6.7776	2.09704
6.7687	2.05015
6.7599	1.99397
6.7511	2.01130
6.7423	2.01810
6.7336	2.04209
6.7248	2.07181
6.7161	2.13250
6.7074	2.17881
6.6988	2.10066
6.6901	2.08021
6.6815	2.09040
6.6729	2.06348
6.6643	2.13784
6.6558	2.16546
6.6472	2.28043
6.6387	2.51724
6.6302	2.53435
6.6218	2.39500
6.6133	2.29661
6.6049	2.27327
6.5965	2.25460
6.5881	2.23111
6.5797	2.29840
6.5714	2.33867
6.5631	2.19827
6.5548	2.14973
6.5465	2.10848
6.5383	2.04917
6.5300	2.08376
6.5218	2.22075
6.5136	2.36930
6.5054	2.53230
6.4973	2.67596
6.4892	2.69858
6.4810	2.69887
6.4730	2.60824
6.4649	2.55346
6.4568	2.58246
6.4488	2.64464
6.4408	2.73372
6.4328	2.78101
6.4248	2.82918
6.4169	3.02877
6.4089	2.89914
6.4010	2.54850
6.3931	2.47820
6.3853	2.43286
6.3774	2.41010
6.3696	2.40956
6.3618	2.37200
6.3540	2.35781
6.3462	2.39528
6.3384	2.36192
6.3307	2.20533
6.3230	2.06600
6.3153	1.94029
6.3076	1.82514
6.2999	1.81424
6.2923	1.79923
6.2847	1.78792
6.2770	1.73241
6.2695	1.69116
6.2619	1.70586
6.2543	1.66771
6.2468	1.57735
6.2393	1.55976
6.2318	1.52932
6.2243	1.44676
6.2168	1.32238
6.2094	1.34909
6.2020	1.43623
6.1945	1.43805
6.1872	1.37398
6.1798	1.27036
6.1724	1.20224
6.1651	1.24457
6.1578	1.31281
6.1505	1.30032
6.1432	1.22498
6.1359	1.15020
6.1286	1.16086
6.1214	1.15492
6.1142	1.19825
6.1070	1.21695
6.0998	1.13051
6.0926	1.09294
6.0855	1.14735
6.0784	1.27660
6.0712	1.28944
6.0641	1.28015
6.0571	1.36364
6.0500	1.43455
6.0429	1.26437
6.0359	1.16732
6.0289	1.24010
6.0219	1.33632
6.0149	1.35545
6.0079	1.29792
6.0010	1.25483
5.9940	1.29701
5.9871	1.37109
5.9802	1.37440
5.9733	1.37938
5.9664	1.40412
5.9596	1.39080
5.9527	1.37088
5.9459	1.45047
5.9391	1.56504
5.9323	1.54596
5.9255	1.53938
5.9188	1.58978
5.9120	1.65167
5.9053	1.71208
5.8986	1.89930
5.8919	2.07012
5.8852	2.16913
5.8785	2.23003
5.8718	2.16179
5.8652	2.21174
5.8586	2.31692
5.8520	2.44765
5.8454	2.51177
5.8388	2.55912
5.8322	2.72864
5.8257	3.00818
5.8191	3.08165
5.8126	2.97513
5.8061	3.01672
5.7996	3.10848
5.7931	3.22181
5.7867	3.36131
5.7802	3.49001
5.7738	3.65381
5.7673	3.93703
5.7609	4.04050
5.7545	3.96020
5.7482	4.02584
5.7418	4.08051
5.7354	4.11120
5.7291	4.15598
5.7228	4.26838
5.7165	4.45290
5.7102	4.52556
5.7039	4.38836
5.6976	4.35990
5.6914	4.45304
5.6851	4.41896
5.6789	4.41383
5.6727	4.29636
5.6665	4.09129
5.6603	4.04367
5.6541	4.05008
5.6480	3.99654
5.6418	3.89906
5.6357	3.74622
5.6296	3.72825
5.6235	3.61417
5.6174	3.45609
5.6113	3.38558
5.6052	3.45103
5.5992	3.47603
5.5931	3.44574
5.5871	3.41149
5.5811	3.43377
5.5751	3.38949
5.5691	3.32683
5.5631	3.37739
5.5572	3.46989
5.5512	3.52746
5.5453	3.49424
5.5394	3.45298
5.5334	3.48706
5.5275	3.58250
5.5217	3.66101
5.5158	3.65804
5.5099	3.65078
5.5041	3.74976
5.4982	3.82974
5.4924	3.87436
5.4866	3.91351
5.4808	4.03727
5.4750	4.06894
5.4692	4.09219
5.4635	4.22061
5.4577	4.25763
5.4520	4.24087
5.4463	4.22646
5.4405	4.20077
5.4348	4.20623
5.4291	4.22462
5.4235	4.14763
5.4178	3.88679
5.4121	3.77176
5.4065	3.71819
5.4009	3.59925
5.3953	3.51584
5.3896	3.37870
5.3840	3.25304
5.3785	3.23143
5.3729	3.25906
5.3673	3.24740
5.3618	3.13694
5.3562	3.06975
5.3507	3.12906
5.3452	3.07680
5.3397	3.07683
5.3342	3.14404
5.3287	3.14965
5.3232	3.17612
5.3178	3.21827
5.3123	3.23755
5.3069	3.28958
5.3015	3.42646
5.2961	3.52685
5.2907	3.45631
5.2853	3.41682
5.2799	3.50144
5.2745	3.61723
5.2691	3.68746
5.2638	3.69750
5.2585	3.74271
5.2531	3.85651
5.2478	3.97788
5.2425	4.07827
5.2372	4.23588
5.2319	4.46513
5.2267	4.65644
5.2214	4.75242
5.2161	4.82994
5.2109	4.95514
5.2057	5.08089
5.2004	5.12433
5.1952	5.12993
5.1900	5.12978
5.1848	5.12516
5.1797	5.10350
5.1745	5.03796
5.1693	4.96959
5.1642	4.98467
5.1590	4.92746
5.1539	4.91503
5.1488	5.07942
5.1437	5.10630
5.1386	5.01454
5.1335	5.04759
5.1284	5.13380
5.1234	5.18111
5.1183	5.17736
5.1133	5.18248
5.1082	5.15779
5.1032	5.10856
5.0982	5.10905
5.0932	5.13400
5.0882	5.11086
5.0832	5.03049
5.0782	4.97672
5.0732	4.92240
5.0683	4.84973
5.0633	4.90071
5.0584	5.02925
5.0534	5.08770
5.0485	5.11637
5.0436	5.08762
5.0387	5.05628
5.0338	5.13174
5.0289	5.06066
5.0241	4.98939
5.0192	5.05872
5.0144	5.14745
5.0095	5.17011
5.0047	5.15012
4.9998	5.10267
4.9950	5.13103
4.9902	5.27994
4.9854	5.41069
4.9806	5.47816
4.9759	5.60542
4.9711	5.82830
4.9663	5.94408
4.9616	6.06932
4.9568	6.25425
4.9521	6.38264
4.9474	6.49064
4.9426	6.54699
4.9379	6.60811
4.9332	6.66624
4.9286	6.75925
4.9239	6.92805
4.9192	7.10797
4.9145	7.31059
4.9099	7.59804
4.9052	7.90511
4.9006	8.16486
4.8960	8.46170
4.8914	8.89835
4.8867	9.23963
4.8821	9.48927
4.8776	9.79069
4.8730	10.09290
4.8684	10.32520
4.8638	10.48910
4.8593	10.56600
4.8547	10.72430
4.8502	10.90060
4.8456	11.05890
4.8411	11.15920
4.8366	11.20870
4.8321	11.38630
4.8276	11.51380
4.8231	11.48310
4.8186	11.56320
4.8142	11.73400
4.8097	11.84840
4.8052	11.86690
4.8008	11.87840
4.7963	11.99240
4.7919	12.00740
4.7875	12.05440
4.7831	12.19560
4.7787	12.16100
4.7743	12.16980
4.7699	12.26580
4.7655	12.44350
4.7611	12.51980
4.7567	12.46120
4.7524	12.46210
4.7480	12.53860
4.7437	12.63640
4.7393	12.69250
4.7350	12.66560
4.7307	12.62870
4.7264	12.64620
4.7221	12.68240
4.7178	12.61630
4.7135	12.57810
4.7092	12.57880
4.7049	12.56940
4.7007	12.47550
4.6964	12.35960
4.6922	12.27870
4.6879	12.20740
4.6837	12.26990
4.6795	12.31510
4.6752	12.34660
4.6710	12.51140
4.6668	12.59300
4.6626	12.62520
4.6584	12.74590
4.6543	12.88720
4.6501	13.02160
4.6459	13.13200
4.6418	13.27470
4.6376	13.42410
4.6335	13.45780
4.6293	13.54430
4.6252	13.64780
4.6211	13.70410
4.6170	13.76480
4.6128	13.86700
4.6087	13.96240
4.6047	13.96690
4.6006	13.97670
4.5965	14.03560
4.5924	14.10600
4.5884	14.15430
4.5843	14.20700
4.5802	14.19510
4.5762	14.20900
4.5722	14.27650
4.5681	14.27520
4.5641	14.24630
4.5601	14.31170
4.5561	14.33880
4.5521	14.28540
4.5481	14.25530
4.5441	14.28370
4.5401	14.26700
4.5362	14.14230
4.5322	14.05470
4.5282	14.01560
4.5243	14.00450
4.5203	13.88860
4.5164	13.74590
4.5125	13.67020
4.5086	13.63080
4.5046	13.45360
4.5007	13.34210
4.4968	13.31580
4.4929	13.21570
4.4890	13.12260
4.4852	13.18540
4.4813	13.18200
4.4774	13.14180
4.4735	13.07290
4.4697	13.01480
4.4658	13.06480
4.4620	13.23140
4.4582	13.36770
4.4543	13.35610
4.4505	13.35180
4.4467	13.52700
4.4429	13.74130
4.4391	13.75140
4.4353	13.76880
4.4315	13.88210
4.4277	14.02540
4.4239	14.15470
4.4202	14.19630
4.4164	14.18970
4.4126	14.22290
4.4089	14.37370
4.4051	14.52940
4.4014	14.63640
4.3977	14.75110
4.3939	14.86500
4.3902	14.95500
4.3865	15.05290
4.3828	15.17170
4.3791	15.36950
4.3754	15.50560
4.3717	15.62170
4.3680	15.67730
4.3643	15.67460
4.3607	15.70970
4.3570	15.77010
4.3534	15.77870
4.3497	15.75010
4.3461	15.72890
4.3424	15.72260
4.3388	15.71830
4.3351	15.69400
4.3315	15.57210
4.3279	15.43900
4.3243	15.41810
4.3207	15.24100
4.3171	14.95790
4.3135	14.61700
4.3099	14.39720
4.3063	14.26390
4.3028	14.05650
4.2992	14.01240
4.2956	13.85770
4.2921	13.60690
4.2885	13.59810
4.2850	13.64580
4.2815	13.54810
4.2779	13.35910
4.2744	13.27870
4.2709	13.43300
4.2674	13.68340
4.2638	14.02840
4.2603	14.78680
4.2568	15.34330
4.2534	14.95070
4.2499	14.15510
4.2464	13.46970
4.2429	13.08650
4.2394	13.00490
4.2360	13.01740
4.2325	13.06780
4.2291	13.19250
4.2256	13.57850
4.2222	14.01170
4.2187	14.40240
4.2153	14.83990
4.2119	15.47720
4.2085	16.25440
4.2051	16.94040
4.2017	17.55470
4.1983	18.07960
4.1949	18.46320
4.1915	18.70180
4.1881	18.84250
4.1847	18.94260
4.1813	19.02960
4.1780	19.02440
4.1746	19.02700
4.1712	19.17910
4.1679	19.28140
4.1645	19.30700
4.1612	19.39330
4.1579	19.47870
4.1545	19.54970
4.1512	19.63630
4.1479	19.72330
4.1446	19.83240
4.1412	19.90170
4.1379	19.93470
4.1346	20.00380
4.1313	20.09100
4.1281	20.14440
4.1248	20.16770
4.1215	20.24200
4.1182	20.36720
4.1150	20.52060
4.1117	20.56750
4.1084	20.57430
4.1052	20.62800
4.1019	20.68480
4.0987	20.80290
4.0955	20.92930
4.0922	21.06980
4.0890	21.12720
4.0858	21.13390
4.0826	21.22120
4.0793	21.28560
4.0761	21.30720
4.0729	21.37690
4.0697	21.48270
4.0665	21.58290
4.0634	21.65480
4.0602	21.68400
4.0570	21.74350
4.0538	21.81860
4.0507	21.83500
4.0475	21.88420
4.0443	21.93730
4.0412	21.92450
4.0380	21.92660
4.0349	22.04870
4.0318	22.15910
4.0286	22.14360
4.0255	22.14490
4.0224	22.23320
4.0193	22.35280
4.0161	22.40140
4.0130	22.40390
4.0099	22.43270
4.0068	22.47130
4.0037	22.49870
4.0006	22.54980
3.9976	22.59590
3.9945	22.61250
3.9914	22.61080
3.9883	22.61310
3.9853	22.70670
3.9822	22.81360
3.9792	22.87960
3.9761	22.87280
3.9731	22.87290
3.9700	22.90940
3.9670	22.92160
3.9639	22.93340
3.9609	23.00610
3.9579	23.04830
3.9549	23.11450
3.9519	23.16190
3.9489	23.19330
3.9458	23.14380
3.9428	23.06690
3.9398	23.17830
3.9369	23.22580
3.9339	23.18000
3.9309	23.23500
3.9279	23.30790
3.9249	23.34160
3.9220	23.36790
3.9190	23.30340
3.9160	23.25510
3.9131	23.24270
3.9101	23.23440
3.9072	23.21830
3.9042	23.21020
3.9013	23.15660
3.8984	23.08770
3.8954	23.14790
3.8925	23.24020
3.8896	23.08830
3.8867	22.95080
3.8838	22.96470
3.8809	22.97420
3.8780	22.96180
3.8751	22.94590
3.8722	22.87010
3.8693	22.76360
3.8664	22.70640
3.8635	22.77160
3.8606	22.74180
3.8578	22.74250
3.8549	22.71390
3.8520	22.66700
3.8492	22.64880
3.8463	22.56110
3.8435	22.52560
3.8406	22.55530
3.8378	22.49680
3.8349	22.45690
3.8321	22.36040
3.8293	22.33280
3.8264	22.34180
3.8236	22.27920
3.8208	22.24780
3.8180	22.14990
3.8152	21.99580
3.8124	21.96450
3.8096	21.93620
3.8068	21.94320
3.8040	21.94590
3.8012	21.87960
3.7984	21.89260
3.7956	21.82160
3.7929	21.73870
3.7901	21.68870
3.7873	21.53670
3.7846	21.47920
3.7818	21.40310
3.7790	21.29490
3.7763	21.21390
3.7735	21.09990
3.7708	21.05210
3.7681	21.07290
3.7653	20.98190
3.7626	20.86100
3.7599	20.73510
3.7571	20.68410
3.7544	20.61930
3.7517	20.51880
3.7490	20.40970
3.7463	20.35230
3.7436	20.27320
3.7409	20.26180
3.7382	20.20430
3.7355	20.06260
3.7328	19.89000
3.7301	19.78160
3.7274	19.78360
3.7247	19.74720
3.7221	19.65510
3.7194	19.55700
3.7167	19.47650
3.7141	19.33020
3.7114	19.20160
3.7088	19.18180
3.7061	19.09530
3.7035	18.97230
3.7008	18.89600
3.6982	18.84440
3.6955	18.79230
3.6929	18.78670
3.6903	18.79290
3.6877	18.69950
3.6850	18.62160
3.6824	18.54400
3.6798	18.46820
3.6772	18.41860
3.6746	18.31560
3.6720	18.14020
3.6694	18.05220
3.6668	17.99540
3.6642	17.87430
3.6616	17.78820
3.6590	17.73200
3.6564	17.63410
3.6539	17.67950
3.6513	17.68170
3.6487	17.47630
3.6462	17.39980
3.6436	17.33190
3.6410	17.25630
3.6385	17.16890
3.6359	17.00310
3.6334	16.83080
3.6308	16.72720
3.6283	16.67660
3.6258	16.60420
3.6232	16.50760
3.6207	16.40590
3.6182	16.32220
3.6156	16.17890
3.6131	16.04660
3.6106	16.02410
3.6081	16.02460
3.6056	15.92370
3.6031	15.83810
3.6006	15.74290
3.5981	15.67120
3.5956	15.53790
3.5931	15.36830
3.5906	15.24470
3.5881	15.18400
3.5856	15.15340
3.5832	15.03100
3.5807	14.87120
3.5782	14.82890
3.5758	14.77020
3.5733	14.62220
3.5708	14.52920
3.5684	14.45090
3.5659	14.32980
3.5635	14.21700
3.5610	14.20110
3.5586	14.15920
3.5561	13.99960
3.5537	13.82970
3.5513	13.65500
3.5488	13.61270
3.5464	13.62330
3.5440	13.47440
3.5416	13.27790
3.5391	13.21750
3.5367	13.12290
3.5343	13.01190
3.5319	12.98190
3.5295	12.86170
3.5271	12.72290
3.5247	12.63850
3.5223	12.65400
3.5199	12.57480
3.5175	12.38760
3.5151	12.21980
3.5128	12.14140
3.5104	12.00740
3.5080	11.92390
3.5056	11.76730
3.5033	11.67880
3.5009	11.53100
3.4985	11.36750
3.4962	11.35530
3.4938	11.40850
3.4915	11.50190
3.4891	11.44980
3.4868	11.32250
3.4844	11.14380
3.4821	11.02380
3.4798	11.03590
3.4774	10.98340
3.4751	10.82770
3.4728	10.70780
3.4704	10.55440
3.4681	10.43020
3.4658	10.39840
3.4635	10.34450
3.4612	10.27630
3.4589	10.18150
3.4566	10.07900
3.4543	10.02700
3.4520	9.94520
3.4497	9.86016
3.4474	9.72430
3.4451	9.61851
3.4428	9.60672
3.4405	9.51013
3.4382	9.31390
3.4359	9.22505
3.4337	9.22681
3.4314	9.21148
3.4291	9.05567
3.4269	8.90426
3.4246	8.89846
3.4223	8.79762
3.4201	8.60549
3.4178	8.46320
3.4156	8.42618
3.4133	8.42887
3.4111	8.36699
3.4088	8.21709
3.4066	8.24417
3.4044	8.26651
3.4021	8.19262
3.3999	8.06420
3.3977	7.99906
3.3954	7.92794
3.3932	7.87824
3.3910	7.78876
3.3888	7.77500
3.3866	7.71092
3.3844	7.60194
3.3822	7.56453
3.3799	7.49790
