Name: Orthoclase (Feldspar) (K,Na)AlSi_3O_8
Type: Mineral
Class: Silicates
Subclass: Tectosilicates
Particle Size: 125-500um
Sample No.: TS-12A
Owner: JPL
Wavelength range: IR
Origin: India
Collected by Burminco
Description:   





Measurement: Hemispherical reflectance
First Column: X
Second Column: Y
X Units:  Wavelength (micrometers)
Y Units:  Reflectance (percent)
First X Value: 15.3853
Last X Value: 2.00032
Number of X Values: 2256
Additional information: ts12aa.txt
 
15.3853	2.63913
15.3397	2.38088
15.2945	2.2809
15.2495	2.17934
15.2048	1.85996
15.1603	1.54438
15.1161	1.32795
15.0722	1.46793
15.0285	1.78095
14.9851	1.73996
14.9419	1.68383
14.8989	1.70895
14.8563	1.8278
14.8138	1.71071
14.7716	1.6735
14.7296	1.78522
14.6879	1.91047
14.6464	2.11182
14.6052	2.13456
14.5641	1.98744
14.5233	2.00066
14.4828	2.23819
14.4424	2.39848
14.4023	2.43061
14.3624	2.57743
14.3227	2.65591
14.2833	2.50729
14.244	2.5549
14.205	2.79219
14.1662	2.96501
14.1276	3.10785
14.0892	3.04795
14.051	3.14392
14.0131	3.08723
13.9753	2.91511
13.9377	2.96743
13.9004	3.15898
13.8632	3.2763
13.8262	3.3024
13.7895	3.1803
13.7529	2.93459
13.7165	2.67023
13.6803	2.59562
13.6443	2.6944
13.6085	2.80612
13.5729	2.90061
13.5374	2.8959
13.5022	2.7399
13.4671	2.67758
13.4322	2.61919
13.3975	2.74344
13.363	2.73462
13.3286	2.53257
13.2944	2.46066
13.2604	2.71855
13.2266	2.70279
13.193	2.61609
13.1595	2.7966
13.1262	2.90289
13.093	2.78567
13.06	2.70938
13.0272	2.49678
12.9946	2.35115
12.9621	2.37362
12.9298	2.48053
12.8976	2.53022
12.8656	2.41741
12.8337	2.26051
12.8021	2.29869
12.7705	2.25729
12.7391	2.2588
12.7079	2.19782
12.6769	2.17738
12.6459	2.15046
12.6152	2.07233
12.5845	2.06803
12.5541	1.98515
12.5238	1.88636
12.4936	1.96575
12.4635	1.93934
12.4337	1.79746
12.4039	1.93211
12.3743	2.02179
12.3448	1.9828
12.3155	2.0524
12.2863	2.19904
12.2573	2.42193
12.2284	2.53502
12.1996	2.48195
12.171	2.5115
12.1425	2.6918
12.1141	2.8331
12.0859	2.79442
12.0578	2.82786
12.0298	2.94442
12.0019	3.02416
11.9742	3.12401
11.9466	3.18509
11.9192	3.18408
11.8918	3.16127
11.8646	3.15761
11.8375	3.21812
11.8106	3.30355
11.7837	3.33966
11.757	3.36777
11.7304	3.38567
11.7039	3.43257
11.6776	3.40322
11.6513	3.40959
11.6252	3.64028
11.5992	3.77799
11.5733	3.84241
11.5475	3.85395
11.5219	3.82496
11.4963	3.76056
11.4709	3.73567
11.4455	3.95608
11.4203	4.10752
11.3952	4.09175
11.3702	4.08227
11.3454	4.13508
11.3206	4.15513
11.2959	4.10641
11.2714	4.29801
11.2469	4.49577
11.2226	4.43024
11.1983	4.4065
11.1742	4.48519
11.1502	4.52589
11.1263	4.65742
11.1024	4.8595
11.0787	4.9579
11.0551	5.01463
11.0316	5.16767
11.0081	5.16056
10.9848	5.02988
10.9616	5.0302
10.9385	5.29455
10.9154	5.52358
10.8925	5.49068
10.8697	5.44806
10.8469	5.5148
10.8243	5.60109
10.8017	5.79089
10.7793	5.90505
10.7569	6.12884
10.7346	6.20782
10.7125	6.15013
10.6904	6.25627
10.6684	6.53834
10.6465	6.70027
10.6247	6.90777
10.6029	7.05812
10.5813	7.19609
10.5597	7.43485
10.5383	7.56257
10.5169	7.55832
10.4956	7.73011
10.4744	8.1183
10.4533	8.46163
10.4323	8.68452
10.4113	8.83969
10.3904	9.06003
10.3697	9.36247
10.349	9.64603
10.3284	9.89247
10.3078	10.2121
10.2874	10.5369
10.267	10.8283
10.2467	11.1512
10.2265	11.431
10.2064	11.7836
10.1863	12.1475
10.1663	12.5248
10.1464	12.8945
10.1266	13.2474
10.1069	13.5801
10.0872	13.997
10.0676	14.3903
10.0481	14.6994
10.0287	15.0104
10.0093	15.459
9.99005	15.8808
9.97084	16.2151
9.95169	16.5695
9.93263	16.8638
9.91364	17.1431
9.89472	17.4387
9.87587	17.6002
9.8571	17.7036
9.83839	17.8886
9.81976	18.2089
9.80119	18.4269
9.78271	18.4246
9.76428	18.5559
9.74592	18.7049
9.72764	19.027
9.70943	19.3865
9.69128	19.6064
9.6732	19.8282
9.65518	20.1462
9.63724	20.4759
9.61935	20.6262
9.60155	20.7853
9.5838	20.9177
9.56611	21.0039
9.5485	21.0597
9.53094	21.1301
9.51345	21.0595
9.49604	20.8538
9.47867	20.5676
9.46137	20.3808
9.44414	19.9791
9.42697	19.1063
9.40986	18.0904
9.39281	17.0675
9.37583	16.1671
9.35891	15.3897
9.34204	14.7275
9.32524	14.0238
9.3085	13.316
9.29182	12.9404
9.27519	12.7483
9.25863	12.5811
9.24213	12.4525
9.22568	12.3343
9.2093	12.2399
9.19297	12.3185
9.17669	12.4494
9.16048	12.4641
9.14433	12.3561
9.12823	12.2625
9.11218	12.1399
9.0962	12.0792
9.08027	12.0347
9.06439	11.9922
9.04858	12.0177
9.03281	11.9853
9.0171	12.008
9.00145	12.0269
8.98585	12.0061
8.9703	11.9424
8.9548	12.0587
8.93937	12.2014
8.92398	12.388
8.90865	12.7449
8.89337	13.2075
8.87814	13.5805
8.86296	13.9009
8.84784	14.0984
8.83277	14.3465
8.81774	14.6932
8.80277	15.0282
8.78786	15.1569
8.77298	15.3087
8.75816	15.5123
8.7434	15.4588
8.72868	15.5603
8.714	15.7371
8.69938	15.6109
8.68481	15.3422
8.67029	15.2497
8.65581	15.3018
8.64139	15.1802
8.62701	15.1134
8.61268	14.9644
8.5984	14.8059
8.58416	14.7384
8.56997	14.807
8.55583	14.819
8.54174	14.6365
8.52769	14.3959
8.51368	14.2191
8.49973	14.0417
8.48582	13.8674
8.47195	13.6435
8.45813	13.4059
8.44436	13.0919
8.43062	12.6747
8.41693	12.244
8.4033	11.9047
8.3897	11.52
8.37614	10.9408
8.36264	10.4238
8.34917	9.98531
8.33574	9.41027
8.32236	8.75364
8.30903	8.09197
8.29573	7.42925
8.28248	6.74341
8.26927	6.04619
8.2561	5.44683
8.24298	5.06888
8.2299	4.53029
8.21685	3.87256
8.20385	3.34233
8.19089	2.99835
8.17797	2.61637
8.16509	2.20101
8.15225	1.89934
8.13946	1.63459
8.1267	1.36303
8.11398	1.15889
8.10131	0.913889
8.08867	0.708226
8.07606	0.711904
8.0635	0.703563
8.05099	0.653456
8.0385	0.537846
8.02606	0.541136
8.01366	0.480917
8.00129	0.415232
7.98896	0.403807
7.97667	0.280587
7.96442	0.290477
7.9522	0.163349
7.94002	0.12768
7.92788	0.122566
7.91578	0.0931262
7.90371	0.0935606
7.89168	0.113183
7.87969	0.105832
7.86773	0.0162147
7.85581	0.0372597
7.84392	0.107494
7.83207	0.089951
7.82026	0.0832201
7.80849	0.0579103
7.79674	0.131283
7.78503	0.181206
7.77337	0.123379
7.76173	0.136707
7.75012	0.090678
7.73856	0.108626
7.72703	0.0813144
7.71553	0.0183717
7.70406	-0.0166562
7.69263	0.0669
7.68123	0.110572
7.66987	0.0722262
7.65855	0.0876997
7.64725	0.179761
7.63598	0.149182
7.62475	0.139837
7.61356	0.194213
7.60239	0.149849
7.59126	0.171936
7.58017	0.208745
7.5691	0.217068
7.55806	0.218157
7.54707	0.206801
7.5361	0.210947
7.52516	0.223881
7.51425	0.285695
7.50338	0.330493
7.49253	0.242539
7.48172	0.229818
7.47094	0.234611
7.46019	0.284996
7.44947	0.28757
7.43879	0.172344
7.42813	0.10058
7.4175	0.220434
7.4069	0.310295
7.39634	0.284662
7.3858	0.374508
7.37529	0.442493
7.36482	0.388265
7.35437	0.300516
7.34396	0.260625
7.33357	0.342091
7.32321	0.411766
7.31288	0.361721
7.30258	0.324341
7.29231	0.355418
7.28207	0.419069
7.27185	0.438014
7.26167	0.523124
7.25152	0.586996
7.24139	0.545657
7.23129	0.512312
7.22122	0.464392
7.21117	0.436474
7.20116	0.4388
7.19117	0.362759
7.18121	0.352147
7.17128	0.492679
7.16137	0.532716
7.1515	0.544475
7.14164	0.54736
7.13182	0.513139
7.12203	0.517784
7.11225	0.607972
7.10251	0.599371
7.0928	0.522227
7.08311	0.535142
7.07344	0.611711
7.06381	0.602698
7.0542	0.581972
7.04461	0.633323
7.03506	0.614174
7.02552	0.628756
7.01601	0.741069
7.00653	0.747475
6.99708	0.678553
6.98765	0.587902
6.97824	0.590012
6.96886	0.724013
6.95951	0.738373
6.95018	0.74404
6.94087	0.760966
6.9316	0.738164
6.92234	0.742175
6.91311	0.741134
6.90391	0.673816
6.89473	0.647662
6.88557	0.786676
6.87644	0.868704
6.86733	0.814028
6.85824	0.811651
6.84918	0.818491
6.84015	0.7446
6.83114	0.738377
6.82215	0.81651
6.81319	0.859704
6.80424	0.843782
6.79532	0.807566
6.78643	0.800369
6.77756	0.883417
6.76871	0.882378
6.75989	0.837959
6.75109	0.845025
6.74231	0.864457
6.73355	0.904624
6.72482	0.909855
6.71611	0.892289
6.70742	0.910244
6.69875	0.912463
6.69011	0.87039
6.68149	0.962361
6.67289	1.00372
6.66431	0.903183
6.65576	0.916992
6.64722	1.02991
6.63871	1.00051
6.63022	0.993224
6.62175	1.05542
6.61331	1.0403
6.60488	0.960656
6.59648	1.09098
6.5881	1.17906
6.57974	1.09068
6.5714	1.04753
6.56308	0.982629
6.55478	0.952398
6.54651	1.05722
6.53825	1.12362
6.53001	1.05074
6.5218	1.07365
6.51361	1.05693
6.50544	1.07546
6.49729	1.15291
6.48915	1.12529
6.48104	1.11632
6.47295	1.09291
6.46488	0.987848
6.45683	1.06419
6.4488	1.16376
6.44079	1.11634
6.4328	1.10987
6.42482	1.14039
6.41687	1.14003
6.40894	1.03519
6.40103	0.966505
6.39314	1.03451
6.38526	1.11892
6.37741	1.07405
6.36957	1.00236
6.36176	0.9739
6.35396	1.00014
6.34618	1.10898
6.33843	1.17917
6.33069	1.20382
6.32297	1.16766
6.31527	1.05506
6.30758	1.01129
6.29992	1.01289
6.29227	1.01962
6.28465	1.05035
6.27704	1.10738
6.26945	1.10232
6.26188	1.07716
6.25432	1.0546
6.24679	1.07147
6.23927	1.10678
6.23177	1.11159
6.22429	1.11563
6.21683	1.13655
6.20938	1.07672
6.20195	1.00482
6.19454	1.02492
6.18715	1.17538
6.17978	1.22432
6.17242	1.20375
6.16508	1.25581
6.15776	1.19907
6.15045	1.09238
6.14317	1.11928
6.1359	1.15692
6.12864	1.19804
6.12141	1.22179
6.11419	1.20966
6.10699	1.20229
6.0998	1.18991
6.09263	1.19388
6.08549	1.27146
6.07835	1.31066
6.07123	1.28252
6.06413	1.29006
6.05705	1.33115
6.04998	1.41985
6.04293	1.33203
6.0359	1.23378
6.02888	1.21988
6.02187	1.22059
6.01489	1.29498
6.00792	1.34503
6.00096	1.26355
5.99403	1.25405
5.98711	1.26952
5.9802	1.24281
5.97331	1.28824
5.96644	1.32597
5.95958	1.3013
5.95274	1.31826
5.94591	1.37291
5.9391	1.46043
5.9323	1.46583
5.92552	1.37833
5.91876	1.3125
5.91201	1.23235
5.90528	1.18689
5.89856	1.31703
5.89186	1.31704
5.88517	1.32098
5.8785	1.41766
5.87184	1.34691
5.8652	1.3563
5.85857	1.35099
5.85196	1.33
5.84536	1.29844
5.83878	1.2661
5.83221	1.29647
5.82566	1.30742
5.81912	1.32325
5.81259	1.31964
5.80608	1.318
5.79959	1.30063
5.79311	1.31356
5.78665	1.33945
5.78019	1.28631
5.77376	1.1874
5.76734	1.2201
5.76093	1.21563
5.75453	1.24205
5.74815	1.2696
5.74179	1.28434
5.73543	1.33875
5.7291	1.35098
5.72277	1.35664
5.71646	1.31069
5.71017	1.20314
5.70389	1.13539
5.69762	1.1978
5.69136	1.21663
5.68513	1.21988
5.6789	1.2294
5.67268	1.2591
5.66648	1.1984
5.6603	1.19668
5.65413	1.25867
5.64797	1.28529
5.64182	1.30138
5.63569	1.36801
5.62957	1.35194
5.62347	1.28087
5.61737	1.26261
5.61129	1.2915
5.60522	1.34674
5.59917	1.31875
5.59313	1.28189
5.5871	1.35095
5.58109	1.46335
5.57509	1.36067
5.5691	1.27868
5.56312	1.29607
5.55716	1.35264
5.55121	1.34218
5.54528	1.33177
5.53935	1.40787
5.53344	1.4476
5.52754	1.42264
5.52166	1.46642
5.51578	1.50729
5.50992	1.48592
5.50407	1.49083
5.49823	1.47754
5.49241	1.54305
5.4866	1.59852
5.4808	1.53527
5.47501	1.54851
5.46923	1.5964
5.46347	1.6316
5.45772	1.61845
5.45198	1.69601
5.44625	1.74266
5.44054	1.75027
5.43484	1.7825
5.42914	1.86493
5.42347	1.88435
5.4178	1.82196
5.41214	1.85625
5.4065	1.86107
5.40087	1.88584
5.39525	1.90434
5.38964	1.90218
5.38404	1.89457
5.37846	1.79803
5.37288	1.83308
5.36732	1.95476
5.36177	1.9856
5.35623	2.00083
5.35071	1.99775
5.34519	2.00485
5.33968	1.91247
5.33419	1.95168
5.32871	2.07486
5.32324	2.12402
5.31778	2.09559
5.31233	2.10762
5.30689	2.13763
5.30147	2.12817
5.29605	2.12901
5.29065	2.21551
5.28525	2.29703
5.27987	2.28548
5.2745	2.32014
5.26914	2.39955
5.26379	2.37932
5.25845	2.39815
5.25312	2.4724
5.24781	2.49705
5.2425	2.51082
5.23721	2.578
5.23192	2.67352
5.22665	2.73053
5.22138	2.78149
5.21613	2.86115
5.21089	2.98354
5.20566	2.99885
5.20044	3.0633
5.19522	3.17274
5.19002	3.22573
5.18483	3.24492
5.17965	3.37189
5.17448	3.53643
5.16933	3.65506
5.16418	3.73912
5.15904	3.83743
5.15391	3.97409
5.14879	4.10427
5.14368	4.21075
5.13859	4.27723
5.1335	4.35556
5.12842	4.49642
5.12335	4.65499
5.1183	4.82957
5.11325	5.01758
5.10821	5.18667
5.10318	5.32153
5.09817	5.41645
5.09316	5.56276
5.08816	5.7972
5.08317	5.99959
5.07819	6.03306
5.07322	6.13522
5.06826	6.38717
5.06331	6.55093
5.05837	6.72833
5.05344	6.92625
5.04852	7.04215
5.04361	7.23034
5.03871	7.31124
5.03382	7.4139
5.02894	7.58498
5.02406	7.67751
5.0192	7.71067
5.01435	7.77291
5.0095	7.85063
5.00467	7.967
4.99984	8.10179
4.99502	8.18116
4.99021	8.22409
4.98542	8.27158
4.98063	8.45052
4.97585	8.48431
4.97108	8.40975
4.96632	8.38157
4.96156	8.39448
4.95682	8.41059
4.95209	8.39537
4.94736	8.32801
4.94264	8.25919
4.93794	8.19257
4.93324	8.11368
4.92855	8.07419
4.92387	8.01799
4.9192	7.9466
4.91453	7.88519
4.90988	7.80468
4.90524	7.79598
4.9006	7.83709
4.89597	7.76076
4.89135	7.83009
4.88674	7.82821
4.88214	7.75993
4.87755	7.80727
4.87296	7.85913
4.86839	7.85376
4.86382	7.83539
4.85926	7.82435
4.85471	7.86452
4.85017	7.9077
4.84564	7.97416
4.84111	7.99259
4.8366	8.00623
4.83209	8.06582
4.82759	8.09919
4.8231	8.03479
4.81862	8.01793
4.81415	8.03194
4.80968	7.96064
4.80522	7.88804
4.80077	7.89089
4.79633	7.94673
4.7919	7.95563
4.78747	7.92589
4.78306	7.95772
4.77865	8.02312
4.77425	7.99525
4.76986	8.05535
4.76547	8.14292
4.7611	8.18969
4.75673	8.12814
4.75237	8.11942
4.74802	8.16631
4.74367	8.19866
4.73934	8.19216
4.73501	8.17726
4.73069	8.20658
4.72638	8.2351
4.72207	8.23991
4.71777	8.297
4.71348	8.33093
4.7092	8.3259
4.70493	8.43941
4.70066	8.48531
4.69641	8.46043
4.69216	8.44116
4.68791	8.44481
4.68368	8.44284
4.67945	8.52807
4.67523	8.63502
4.67102	8.64645
4.66682	8.66561
4.66262	8.71075
4.65843	8.77722
4.65425	8.89356
4.65007	8.98233
4.64591	9.10742
4.64175	9.16736
4.6376	9.22936
4.63345	9.35743
4.62932	9.44929
4.62519	9.59411
4.62106	9.76272
4.61695	9.87935
4.61284	10.0357
4.60874	10.2198
4.60465	10.401
4.60056	10.4679
4.59648	10.5815
4.59241	10.7765
4.58835	10.9787
4.58429	11.1892
4.58024	11.3987
4.5762	11.5808
4.57216	11.7488
4.56814	11.911
4.56411	12.1154
4.5601	12.3357
4.55609	12.6268
4.55209	12.9413
4.5481	13.1478
4.54411	13.3088
4.54013	13.5863
4.53616	13.8669
4.5322	14.1074
4.52824	14.3743
4.52429	14.6682
4.52034	14.8975
4.51641	15.1903
4.51247	15.4654
4.50855	15.6938
4.50463	15.978
4.50072	16.2827
4.49682	16.5431
4.49292	16.7972
4.48903	16.9985
4.48515	17.2971
4.48127	17.6155
4.4774	17.9325
4.47354	18.2604
4.46968	18.5623
4.46584	18.821
4.46199	19.1002
4.45815	19.4214
4.45432	19.7708
4.4505	20.0856
4.44668	20.3356
4.44287	20.6236
4.43907	20.9318
4.43527	21.1964
4.43148	21.5741
4.4277	21.9615
4.42392	22.2552
4.42015	22.5736
4.41638	22.9055
4.41262	23.181
4.40887	23.5266
4.40513	23.891
4.40139	24.1594
4.39765	24.458
4.39393	24.8345
4.39021	25.202
4.38649	25.509
4.38278	25.8669
4.37908	26.2784
4.37539	26.6675
4.3717	27.0247
4.36801	27.3707
4.36434	27.7815
4.36067	28.2548
4.357	28.6814
4.35335	29.0477
4.34969	29.4396
4.34605	29.8298
4.34241	30.2963
4.33877	30.7613
4.33514	31.2694
4.33152	31.7449
4.32791	32.227
4.3243	32.7206
4.32069	33.1259
4.3171	33.5631
4.31351	34.1317
4.30992	34.6683
4.30634	35.1959
4.30277	35.6777
4.2992	36.1569
4.29564	36.6068
4.29208	37.1126
4.28853	37.6649
4.28499	38.1361
4.28145	38.5143
4.27792	38.9632
4.27439	39.3821
4.27087	39.6969
4.26735	40.0404
4.26384	40.4605
4.26034	40.7532
4.25684	40.9631
4.25335	41.3869
4.24986	41.9637
4.24638	42.5207
4.24291	43.026
4.23944	43.4691
4.23598	43.8313
4.23252	44.1938
4.22906	44.4559
4.22562	44.6535
4.22218	44.9573
4.21874	45.2176
4.21531	45.3716
4.21189	45.4484
4.20847	45.5988
4.20506	45.8017
4.20165	46.0439
4.19825	46.2563
4.19485	46.4272
4.19146	46.6609
4.18807	46.9029
4.18469	47.0955
4.18132	47.2966
4.17795	47.4715
4.17458	47.6476
4.17123	47.7688
4.16787	47.9223
4.16453	48.0308
4.16118	48.178
4.15785	48.3862
4.15451	48.5359
4.15119	48.6094
4.14787	48.7508
4.14455	48.8761
4.14124	48.9894
4.13794	49.121
4.13464	49.3185
4.13134	49.4463
4.12805	49.4844
4.12477	49.5477
4.12149	49.6609
4.11822	49.793
4.11495	49.8793
4.11168	49.9427
4.10843	50.0349
4.10517	50.1239
4.10192	50.193
4.09868	50.2027
4.09545	50.2984
4.09221	50.4285
4.08899	50.4265
4.08576	50.4166
4.08255	50.5207
4.07933	50.6397
4.07613	50.6714
4.07292	50.6911
4.06973	50.7441
4.06654	50.8032
4.06335	50.8905
4.06017	50.968
4.05699	50.9744
4.05382	51.03
4.05065	51.1157
4.04749	51.1407
4.04433	51.1806
4.04118	51.1587
4.03803	51.1622
4.03489	51.3299
4.03175	51.4338
4.02862	51.3942
4.02549	51.3952
4.02237	51.4245
4.01925	51.4704
4.01614	51.5412
4.01303	51.5999
4.00993	51.6693
4.00683	51.769
4.00373	51.7524
4.00064	51.7582
3.99756	51.9124
3.99448	51.9988
3.9914	51.9962
3.98833	52.038
3.98527	52.0501
3.98221	52.0008
3.97915	52.0814
3.9761	52.1811
3.97305	52.2641
3.97001	52.3733
3.96697	52.4411
3.96394	52.5287
3.96091	52.6296
3.95789	52.7009
3.95487	52.7193
3.95186	52.784
3.94885	52.8661
3.94584	52.9074
3.94284	52.9792
3.93984	53.0754
3.93685	53.176
3.93386	53.3286
3.93088	53.3749
3.9279	53.436
3.92493	53.4769
3.92196	53.5436
3.919	53.6393
3.91604	53.6593
3.91308	53.7005
3.91013	53.8726
3.90718	53.9586
3.90424	53.9919
3.9013	54.0672
3.89837	54.2181
3.89544	54.3494
3.89252	54.4742
3.8896	54.5309
3.88668	54.5663
3.88377	54.601
3.88086	54.7102
3.87796	54.8676
3.87506	54.9632
3.87217	55.0176
3.86928	55.1242
3.86639	55.2447
3.86351	55.3978
3.86064	55.5495
3.85776	55.6788
3.8549	55.8164
3.85203	55.9199
3.84917	55.9984
3.84631	56.105
3.84346	56.2604
3.84062	56.3878
3.83777	56.4872
3.83494	56.64
3.8321	56.7398
3.82927	56.8539
3.82644	57.0374
3.82362	57.248
3.82081	57.3784
3.81799	57.4472
3.81518	57.5911
3.81238	57.7464
3.80958	57.8435
3.80678	57.9976
3.80399	58.0892
3.8012	58.2218
3.79841	58.3915
3.79563	58.5134
3.79286	58.6166
3.79008	58.721
3.78731	58.8454
3.78455	58.9994
3.78179	59.1205
3.77903	59.1835
3.77628	59.25
3.77353	59.3547
3.77079	59.4989
3.76805	59.6473
3.76531	59.7224
3.76258	59.7858
3.75985	59.799
3.75713	59.8769
3.7544	60.0531
3.75169	60.1455
3.74898	60.2473
3.74627	60.3466
3.74356	60.3973
3.74086	60.4856
3.73816	60.605
3.73547	60.7326
3.73278	60.9109
3.7301	61.0317
3.72741	61.0759
3.72474	61.0899
3.72206	61.152
3.71939	61.2885
3.71673	61.4013
3.71406	61.5036
3.71141	61.6016
3.70875	61.7141
3.7061	61.738
3.70345	61.7699
3.70081	61.8841
3.69817	61.9844
3.69553	62.0716
3.6929	62.1779
3.69027	62.2297
3.68765	62.2971
3.68503	62.4324
3.68241	62.4894
3.6798	62.5351
3.67719	62.6406
3.67458	62.7581
3.67198	62.7854
3.66938	62.8173
3.66678	62.9332
3.66419	63.0282
3.66161	63.1029
3.65902	63.1528
3.65644	63.2175
3.65387	63.2733
3.65129	63.3592
3.64872	63.4214
3.64616	63.4152
3.64359	63.4904
3.64103	63.6299
3.63848	63.6823
3.63593	63.6721
3.63338	63.6784
3.63084	63.7607
3.6283	63.8056
3.62576	63.8481
3.62322	63.804
3.62069	63.7985
3.61817	63.9004
3.61564	63.9056
3.61312	63.9313
3.61061	64.0017
3.6081	64.0623
3.60559	64.0905
3.60308	64.0746
3.60058	64.1312
3.59808	64.1092
3.59558	64.0101
3.59309	63.9976
3.59061	64.1051
3.58812	64.1784
3.58564	64.1666
3.58316	64.1747
3.58069	64.1573
3.57822	64.054
3.57575	64.0524
3.57328	64.0484
3.57082	64.0181
3.56836	64.0192
3.56591	64.0228
3.56346	63.9653
3.56101	63.9693
3.55857	63.9388
3.55613	63.9196
3.55369	63.8749
3.55126	63.8211
3.54883	63.7806
3.5464	63.7368
3.54397	63.7032
3.54155	63.6049
3.53914	63.5569
3.53672	63.5354
3.53431	63.4583
3.5319	63.307
3.5295	63.1778
3.5271	63.0878
3.5247	62.8917
3.52231	62.7107
3.51991	62.4896
3.51753	62.1747
3.51514	61.9031
3.51276	61.5942
3.51038	61.2763
3.50801	60.8727
3.50563	60.4927
3.50327	60.2764
3.5009	60.1757
3.49854	60.1977
3.49618	60.2185
3.49382	60.3318
3.49147	60.491
3.48912	60.5395
3.48677	60.4984
