Name: Grossular Garnet Ca_3Al_2(SiO_4)_3
Type: Mineral
Class: Silicates
Subclass: Nesosilicates
Particle Size: 125-500um
Sample No.: NS-3B
Owner: JPL
Wavelength range: IR
Origin: Mexico, Lake Jaco
Collected by New, David
Description: 





Measurement: Hemispherical reflectance
First Column: X
Second Column: Y
X Units:  Wavelength (micrometers)
Y Units:  Reflectance (percent)
First X Value: 15.3853
Last X Value: 2.00032
Number of X Values: 2256
Additional information: ns03ba.txt
 
15.3853	1.30046
15.3397	1.54419
15.2945	1.61984
15.2495	1.61411
15.2048	1.78949
15.1603	2.08492
15.1161	2.2276
15.0722	2.26397
15.0285	2.24752
14.9851	2.41656
14.9419	2.69475
14.8989	2.72754
14.8563	2.66906
14.8138	2.73539
14.7716	3.02459
14.7296	3.10187
14.6879	3.07603
14.6464	3.16829
14.6052	3.19128
14.5641	3.42343
14.5233	3.6126
14.4828	3.42047
14.4424	3.2929
14.4023	3.54519
14.3624	3.69077
14.3227	3.82253
14.2833	3.97331
14.244	4.07974
14.205	4.22487
14.1662	4.37104
14.1276	4.51467
14.0892	4.50847
14.051	4.40064
14.0131	4.60654
13.9753	4.83377
13.9377	4.79853
13.9004	4.80264
13.8632	4.92666
13.8262	5.16142
13.7895	5.30547
13.7529	5.38079
13.7165	5.48256
13.6803	5.51374
13.6443	5.61865
13.6085	5.89817
13.5729	6.11845
13.5374	6.34399
13.5022	6.43535
13.4671	6.51766
13.4322	6.58254
13.3975	6.6161
13.363	6.71582
13.3286	6.80541
13.2944	6.92834
13.2604	6.93688
13.2266	6.90241
13.193	6.90719
13.1595	6.92729
13.1262	6.75062
13.093	6.8843
13.06	7.01659
13.0272	7.16512
12.9946	7.26496
12.9621	7.31746
12.9298	7.42722
12.8976	7.63053
12.8656	7.95864
12.8337	8.27657
12.8021	8.62421
12.7705	8.92507
12.7391	9.31278
12.7079	9.62017
12.6769	9.82796
12.6459	10.0612
12.6152	10.3378
12.5845	10.6188
12.5541	11.0305
12.5238	11.4603
12.4936	11.9022
12.4635	12.2876
12.4337	12.6961
12.4039	13.1996
12.3743	13.7775
12.3448	14.4204
12.3155	15.0215
12.2863	15.6029
12.2573	16.1918
12.2284	17.0023
12.1996	17.8486
12.171	18.777
12.1425	19.9424
12.1141	21.0559
12.0859	22.2552
12.0578	23.6789
12.0298	25.1218
12.0019	26.3062
11.9742	27.2323
11.9466	27.7566
11.9192	27.7868
11.8918	27.3803
11.8646	26.6609
11.8375	26.0178
11.8106	25.4513
11.7837	25.4571
11.757	26.2159
11.7304	27.3069
11.7039	28.6317
11.6776	29.9535
11.6513	30.9868
11.6252	31.4743
11.5992	31.5506
11.5733	31.1548
11.5475	30.2468
11.5219	28.9716
11.4963	27.3513
11.4709	25.2515
11.4455	22.8093
11.4203	19.9722
11.3952	16.7485
11.3702	13.5199
11.3454	10.6972
11.3206	8.60028
11.2959	7.29298
11.2714	6.79834
11.2469	7.00674
11.2226	7.87581
11.1983	9.18115
11.1742	10.783
11.1502	12.8927
11.1263	15.369
11.1024	18.4259
11.0787	21.8815
11.0551	25.3508
11.0316	28.534
11.0081	31.1096
10.9848	33.0101
10.9616	34.4411
10.9385	35.3552
10.9154	35.9173
10.8925	36.2672
10.8697	36.3606
10.8469	36.3391
10.8243	36.2054
10.8017	35.8947
10.7793	35.7261
10.7569	35.815
10.7346	36.2328
10.7125	37.081
10.6904	38.1006
10.6684	38.8564
10.6465	39.4093
10.6247	39.8731
10.6029	40.2082
10.5813	40.239
10.5597	40.2013
10.5383	40.3501
10.5169	40.7184
10.4956	41.3481
10.4744	42.2084
10.4533	43.3656
10.4323	44.6346
10.4113	45.7434
10.3904	46.8053
10.3697	47.7279
10.349	48.1831
10.3284	48.149
10.3078	47.8383
10.2874	47.2968
10.267	46.613
10.2467	45.8569
10.2265	45.0614
10.2064	44.2909
10.1863	43.479
10.1663	42.4954
10.1464	41.4039
10.1266	40.2176
10.1069	38.8878
10.0872	37.2394
10.0676	35.4353
10.0481	33.5762
10.0287	31.4692
10.0093	29.2006
9.99005	26.7466
9.97084	24.1793
9.95169	21.7564
9.93263	19.4949
9.91364	17.481
9.89472	15.6939
9.87587	14.219
9.8571	12.7859
9.83839	11.2052
9.81976	9.83848
9.80119	8.45312
9.78271	7.13134
9.76428	6.18327
9.74592	5.33958
9.72764	4.45995
9.70943	3.62572
9.69128	2.98135
9.6732	2.56391
9.65518	2.0938
9.63724	1.70953
9.61935	1.37466
9.60155	1.14453
9.5838	0.902185
9.56611	0.715944
9.5485	0.556855
9.53094	0.507731
9.51345	0.514555
9.49604	0.429954
9.47867	0.325876
9.46137	0.343038
9.44414	0.297376
9.42697	0.0565351
9.40986	-0.0744729
9.39281	-0.0117851
9.37583	0.0840287
9.35891	0.0986067
9.34204	0.0814527
9.32524	0.117313
9.3085	0.179983
9.29182	0.156276
9.27519	0.181524
9.25863	0.103927
9.24213	0.155741
9.22568	0.20379
9.2093	0.312385
9.19297	0.229703
9.17669	0.0186038
9.16048	0.0444417
9.14433	0.142713
9.12823	0.175034
9.11218	0.23876
9.0962	0.283138
9.08027	0.297563
9.06439	0.289944
9.04858	0.319336
9.03281	0.275009
9.0171	0.229434
9.00145	0.26487
8.98585	0.304984
8.9703	0.352376
8.9548	0.265065
8.93937	0.195
8.92398	0.333421
8.90865	0.443328
8.89337	0.504589
8.87814	0.445636
8.86296	0.294672
8.84784	0.31771
8.83277	0.305326
8.81774	0.382661
8.80277	0.518294
8.78786	0.55413
8.77298	0.567384
8.75816	0.581832
8.7434	0.61205
8.72868	0.687542
8.714	0.699054
8.69938	0.538144
8.68481	0.535359
8.67029	0.671969
8.65581	0.631352
8.64139	0.689692
8.62701	0.736838
8.61268	0.681217
8.5984	0.753682
8.58416	0.703245
8.56997	0.710995
8.55583	0.82121
8.54174	0.891712
8.52769	0.885955
8.51368	0.830377
8.49973	0.775315
8.48582	0.846572
8.47195	0.907476
8.45813	0.990995
8.44436	1.05731
8.43062	1.09416
8.41693	1.0541
8.4033	1.00364
8.3897	0.982965
8.37614	0.941918
8.36264	0.867967
8.34917	1.04909
8.33574	1.10409
8.32236	0.958236
8.30903	1.07742
8.29573	1.22158
8.28248	1.17661
8.26927	1.1087
8.2561	1.05526
8.24298	1.17712
8.2299	1.35866
8.21685	1.36246
8.20385	1.34059
8.19089	1.32221
8.17797	1.42232
8.16509	1.41942
8.15225	1.39088
8.13946	1.40105
8.1267	1.3973
8.11398	1.43491
8.10131	1.4453
8.08867	1.45075
8.07606	1.48762
8.0635	1.52765
8.05099	1.55997
8.0385	1.539
8.02606	1.61854
8.01366	1.6891
8.00129	1.58461
7.98896	1.48221
7.97667	1.521
7.96442	1.61253
7.9522	1.6437
7.94002	1.72164
7.92788	1.74873
7.91578	1.79015
7.90371	1.74322
7.89168	1.62762
7.87969	1.62411
7.86773	1.68203
7.85581	1.70713
7.84392	1.65364
7.83207	1.73874
7.82026	1.83931
7.80849	1.78276
7.79674	1.71919
7.78503	1.76271
7.77337	1.88608
7.76173	1.90054
7.75012	1.84663
7.73856	1.80853
7.72703	1.77493
7.71553	1.88376
7.70406	1.96711
7.69263	1.95358
7.68123	2.01005
7.66987	2.03008
7.65855	2.01308
7.64725	2.02028
7.63598	2.03059
7.62475	2.00568
7.61356	2.01653
7.60239	2.04697
7.59126	2.02782
7.58017	2.077
7.5691	2.07579
7.55806	2.13302
7.54707	2.17111
7.5361	2.06508
7.52516	2.05376
7.51425	2.14244
7.50338	2.20818
7.49253	2.21621
7.48172	2.14302
7.47094	2.12377
7.46019	2.23933
7.44947	2.27361
7.43879	2.25032
7.42813	2.28743
7.4175	2.33469
7.4069	2.33046
7.39634	2.3478
7.3858	2.40309
7.37529	2.41746
7.36482	2.40654
7.35437	2.39682
7.34396	2.45975
7.33357	2.56819
7.32321	2.53295
7.31288	2.53327
7.30258	2.56207
7.29231	2.55009
7.28207	2.51062
7.27185	2.4523
7.26167	2.48236
7.25152	2.55578
7.24139	2.55918
7.23129	2.61634
7.22122	2.66856
7.21117	2.63506
7.20116	2.56297
7.19117	2.56545
7.18121	2.6813
7.17128	2.78721
7.16137	2.76985
7.1515	2.71946
7.14164	2.76291
7.13182	2.82116
7.12203	2.83102
7.11225	2.85091
7.10251	2.85493
7.0928	2.86752
7.08311	2.90944
7.07344	2.91987
7.06381	2.93416
7.0542	2.99519
7.04461	3.1091
7.03506	3.122
7.02552	3.06337
7.01601	3.09798
7.00653	3.23161
6.99708	3.2983
6.98765	3.21951
6.97824	3.15268
6.96886	3.2229
6.95951	3.40081
6.95018	3.39804
6.94087	3.26718
6.9316	3.32277
6.92234	3.43228
6.91311	3.48074
6.90391	3.60441
6.89473	3.72804
6.88557	3.75304
6.87644	3.83838
6.86733	4.16692
6.85824	4.39723
6.84918	4.36219
6.84015	4.37296
6.83114	4.4633
6.82215	4.50582
6.81319	4.5181
6.80424	4.64758
6.79532	4.92529
6.78643	5.08072
6.77756	5.09757
6.76871	5.0142
6.75989	5.01914
6.75109	5.17389
6.74231	5.19537
6.73355	5.26057
6.72482	5.43858
6.71611	5.53344
6.70742	5.58876
6.69875	5.5326
6.69011	5.60089
6.68149	5.68656
6.67289	5.6941
6.66431	5.70104
6.65576	5.67798
6.64722	5.93888
6.63871	6.32171
6.63022	6.26077
6.62175	6.111
6.61331	6.07607
6.60488	6.07843
6.59648	6.32678
6.5881	6.50643
6.57974	6.65362
6.5714	6.8579
6.56308	6.76379
6.55478	6.76001
6.54651	6.82556
6.53825	6.89391
6.53001	7.05973
6.5218	7.31603
6.51361	7.35133
6.50544	7.49279
6.49729	7.92542
6.48915	8.01214
6.48104	7.73948
6.47295	7.65689
6.46488	7.58155
6.45683	7.57104
6.4488	7.63977
6.44079	7.70246
6.4328	7.74516
6.42482	7.75144
6.41687	8.055
6.40894	7.91183
6.40103	7.44638
6.39314	7.37347
6.38526	7.39345
6.37741	7.51839
6.36957	7.70196
6.36176	7.62044
6.35396	7.65472
6.34618	7.84929
6.33843	7.70978
6.33069	7.50968
6.32297	7.51298
6.31527	7.53169
6.30758	7.49569
6.29992	7.40643
6.29227	7.37794
6.28465	7.33179
6.27704	7.25603
6.26945	7.29879
6.26188	7.29186
6.25432	7.20472
6.24679	7.14422
6.23927	7.02224
6.23177	6.86624
6.22429	6.74903
6.21683	6.65538
6.20938	6.59695
6.20195	6.43195
6.19454	6.32358
6.18715	6.38449
6.17978	6.14802
6.17242	5.81846
6.16508	5.74567
6.15776	5.56033
6.15045	5.33212
6.14317	5.18364
6.1359	4.95829
6.12864	4.722
6.12141	4.60756
6.11419	4.59303
6.10699	4.39165
6.0998	4.17347
6.09263	4.04682
6.08549	3.83312
6.07835	3.71047
6.07123	3.63981
6.06413	3.46894
6.05705	3.37661
6.04998	3.51786
6.04293	3.36716
6.0359	3.1907
6.02888	3.18846
6.02187	3.14534
6.01489	3.06707
6.00792	3.00631
6.00096	2.91323
5.99403	2.87816
5.98711	2.8717
5.9802	2.86518
5.97331	2.87281
5.96644	2.83116
5.95958	2.78432
5.95274	2.77869
5.94591	2.77839
5.9391	2.90136
5.9323	2.88292
5.92552	2.71818
5.91876	2.58901
5.91201	2.58707
5.90528	2.63324
5.89856	2.75511
5.89186	2.8078
5.88517	2.91135
5.8785	2.86197
5.87184	2.70564
5.8652	2.72762
5.85857	2.71906
5.85196	2.72329
5.84536	2.76793
5.83878	2.85873
5.83221	2.89171
5.82566	2.93876
5.81912	2.93393
5.81259	2.80529
5.80608	2.7772
5.79959	2.84032
5.79311	2.92028
5.78665	2.89856
5.78019	2.85016
5.77376	2.91289
5.76734	3.06253
5.76093	3.08126
5.75453	3.06701
5.74815	3.08715
5.74179	3.06195
5.73543	3.1607
5.7291	3.17984
5.72277	3.12505
5.71646	3.17548
5.71017	3.306
5.70389	3.35259
5.69762	3.31505
5.69136	3.27342
5.68513	3.29349
5.6789	3.45377
5.67268	3.55499
5.66648	3.52101
5.6603	3.51541
5.65413	3.67623
5.64797	3.86763
5.64182	3.90067
5.63569	3.84305
5.62957	3.80694
5.62347	3.78767
5.61737	3.8395
5.61129	3.8945
5.60522	3.97426
5.59917	3.96976
5.59313	3.86618
5.5871	3.94222
5.58109	4.10619
5.57509	4.1163
5.5691	4.03911
5.56312	4.03906
5.55716	4.03681
5.55121	4.02757
5.54528	4.01961
5.53935	4.03486
5.53344	4.0618
5.52754	4.09304
5.52166	4.16643
5.51578	4.16263
5.50992	4.10011
5.50407	4.11339
5.49823	4.06926
5.49241	3.9966
5.4866	4.00659
5.4808	4.06704
5.47501	4.04655
5.46923	4.10366
5.46347	4.20123
5.45772	4.16196
5.45198	4.17615
5.44625	4.25785
5.44054	4.32772
5.43484	4.3662
5.42914	4.36843
5.42347	4.45968
5.4178	4.53762
5.41214	4.56917
5.4065	4.57145
5.40087	4.61788
5.39525	4.65707
5.38964	4.71824
5.38404	4.82209
5.37846	4.91835
5.37288	4.98941
5.36732	5.1146
5.36177	5.22367
5.35623	5.39693
5.35071	5.52912
5.34519	5.56472
5.33968	5.62333
5.33419	5.64276
5.32871	5.74916
5.32324	6.04978
5.31778	6.22598
5.31233	6.34538
5.30689	6.56934
5.30147	6.77661
5.29605	7.09746
5.29065	7.42789
5.28525	7.59607
5.27987	7.8209
5.2745	8.12169
5.26914	8.42437
5.26379	8.67575
5.25845	8.90286
5.25312	9.10254
5.24781	9.26768
5.2425	9.437
5.23721	9.60517
5.23192	9.61672
5.22665	9.75627
5.22138	9.97786
5.21613	10.1352
5.21089	10.2369
5.20566	10.2526
5.20044	10.3274
5.19522	10.42
5.19002	10.48
5.18483	10.5619
5.17965	10.5925
5.17448	10.7122
5.16933	10.8538
5.16418	10.8887
5.15904	10.9546
5.15391	11.1024
5.14879	11.2054
5.14368	11.2336
5.13859	11.2865
5.1335	11.3988
5.12842	11.4674
5.12335	11.536
5.1183	11.631
5.11325	11.6821
5.10821	11.8198
5.10318	12.02
5.09817	12.018
5.09316	12.0027
5.08816	12.1207
5.08317	12.2705
5.07819	12.3576
5.07322	12.3711
5.06826	12.4106
5.06331	12.5518
5.05837	12.5993
5.05344	12.5718
5.04852	12.6779
5.04361	12.8079
5.03871	12.8525
5.03382	12.9447
5.02894	12.9908
5.02406	13.0902
5.0192	13.1946
5.01435	13.1927
5.0095	13.2336
5.00467	13.3181
4.99984	13.4291
4.99502	13.5666
4.99021	13.6525
4.98542	13.7246
4.98063	13.7769
4.97585	13.842
4.97108	13.9753
4.96632	14.0669
4.96156	14.1444
4.95682	14.2419
4.95209	14.2669
4.94736	14.2932
4.94264	14.3638
4.93794	14.4584
4.93324	14.58
4.92855	14.6695
4.92387	14.6732
4.9192	14.7049
4.91453	14.7458
4.90988	14.8404
4.90524	14.9155
4.9006	14.9784
4.89597	15.0411
4.89135	15.0813
4.88674	15.1619
4.88214	15.1884
4.87755	15.2625
4.87296	15.3485
4.86839	15.3845
4.86382	15.3562
4.85926	15.4201
4.85471	15.4587
4.85017	15.5035
4.84564	15.6217
4.84111	15.6479
4.8366	15.6682
4.83209	15.7902
4.82759	15.8888
4.8231	15.918
4.81862	15.9542
4.81415	16.0627
4.80968	16.2701
4.80522	16.3279
4.80077	16.2436
4.79633	16.2439
4.7919	16.3332
4.78747	16.3886
4.78306	16.4584
4.77865	16.5098
4.77425	16.6079
4.76986	16.6717
4.76547	16.7135
4.7611	16.7676
4.75673	16.8637
4.75237	16.9208
4.74802	16.9826
4.74367	17.0645
4.73934	17.1439
4.73501	17.1508
4.73069	17.1541
4.72638	17.2282
4.72207	17.2651
4.71777	17.3124
4.71348	17.4239
4.7092	17.4918
4.70493	17.5131
4.70066	17.5739
4.69641	17.6621
4.69216	17.6416
4.68791	17.6722
4.68368	17.7177
4.67945	17.7764
4.67523	17.7789
4.67102	17.773
4.66682	17.8495
4.66262	17.8953
4.65843	17.9421
4.65425	18.0399
4.65007	18.0562
4.64591	18.0899
4.64175	18.1145
4.6376	18.0769
4.63345	18.0298
4.62932	18.1165
4.62519	18.2151
4.62106	18.22
4.61695	18.1957
4.61284	18.2488
4.60874	18.2845
4.60465	18.2755
4.60056	18.2962
4.59648	18.3526
4.59241	18.4106
4.58835	18.3797
4.58429	18.352
4.58024	18.3588
4.5762	18.3828
4.57216	18.4681
4.56814	18.5032
4.56411	18.4334
4.5601	18.4697
4.55609	18.5588
4.55209	18.5462
4.5481	18.5821
4.54411	18.6239
4.54013	18.5924
4.53616	18.5602
4.5322	18.5691
4.52824	18.6104
4.52429	18.6663
4.52034	18.6823
4.51641	18.6045
4.51247	18.5266
4.50855	18.6
4.50463	18.6808
4.50072	18.7264
4.49682	18.718
4.49292	18.6727
4.48903	18.6742
4.48515	18.6425
4.48127	18.6459
4.4774	18.6632
4.47354	18.75
4.46968	18.8279
4.46584	18.7491
4.46199	18.6196
4.45815	18.5897
4.45432	18.6576
4.4505	18.6693
4.44668	18.6445
4.44287	18.6391
4.43907	18.6411
4.43527	18.6528
4.43148	18.6057
4.4277	18.5778
4.42392	18.5971
4.42015	18.6398
4.41638	18.5972
4.41262	18.4937
4.40887	18.444
4.40513	18.4838
4.40139	18.5331
4.39765	18.5412
4.39393	18.5122
4.39021	18.5183
4.38649	18.5636
4.38278	18.4715
4.37908	18.4012
4.37539	18.4473
4.3717	18.4264
4.36801	18.3879
4.36434	18.4036
4.36067	18.3835
4.357	18.4031
4.35335	18.4472
4.34969	18.4742
4.34605	18.5217
4.34241	18.5128
4.33877	18.4253
4.33514	18.3955
4.33152	18.3783
4.32791	18.3673
4.3243	18.331
4.32069	18.3175
4.3171	18.2461
4.31351	18.2163
4.30992	18.2802
4.30634	18.3076
4.30277	18.2273
4.2992	18.1796
4.29564	18.149
4.29208	18.176
4.28853	18.1799
4.28499	18.1489
4.28145	18.0303
4.27792	17.9987
4.27439	18.0724
4.27087	18.0965
4.26735	17.9912
4.26384	17.9758
4.26034	17.9995
4.25684	17.9676
4.25335	17.9526
4.24986	17.9388
4.24638	17.8543
4.24291	17.8124
4.23944	17.7824
4.23598	17.7103
4.23252	17.6315
4.22906	17.5707
4.22562	17.5188
4.22218	17.534
4.21874	17.5114
4.21531	17.4395
4.21189	17.391
4.20847	17.3894
4.20506	17.4123
4.20165	17.3211
4.19825	17.2976
4.19485	17.2852
4.19146	17.2412
4.18807	17.1747
4.18469	17.1107
4.18132	17.0669
4.17795	17.0452
4.17458	17.0722
4.17123	17.0605
4.16787	16.9813
4.16453	16.9068
4.16118	16.8701
4.15785	16.818
4.15451	16.8181
4.15119	16.8132
4.14787	16.7612
4.14455	16.7466
4.14124	16.7914
4.13794	16.7915
4.13464	16.7273
4.13134	16.7072
4.12805	16.5895
4.12477	16.4863
4.12149	16.5723
4.11822	16.5687
4.11495	16.416
4.11168	16.3587
4.10843	16.3442
4.10517	16.2962
4.10192	16.2207
4.09868	16.1368
4.09545	16.1343
4.09221	16.0818
4.08899	16.0652
4.08576	16.0541
4.08255	15.9946
4.07933	15.9539
4.07613	15.9228
4.07292	15.843
4.06973	15.7491
4.06654	15.7128
4.06335	15.6962
4.06017	15.6685
4.05699	15.6261
4.05382	15.5562
4.05065	15.5155
4.04749	15.437
4.04433	15.3928
4.04118	15.3488
4.03803	15.364
4.03489	15.3811
4.03175	15.3298
4.02862	15.2967
4.02549	15.2922
4.02237	15.3161
4.01925	15.34
4.01614	15.4131
4.01303	15.5044
4.00993	15.5002
4.00683	15.549
4.00373	15.5204
4.00064	15.5029
3.99756	15.6314
3.99448	15.7761
3.9914	15.7709
3.98833	15.8031
3.98527	15.9449
3.98221	16.0708
3.97915	16.0759
3.9761	16.1247
3.97305	16.179
3.97001	16.1333
3.96697	16.2117
3.96394	16.3309
3.96091	16.2806
3.95789	16.2776
3.95487	16.3938
3.95186	16.5217
3.94885	16.5743
3.94584	16.7197
3.94284	16.847
3.93984	16.8356
3.93685	16.8657
3.93386	16.968
3.93088	16.9233
3.9279	16.8434
3.92493	16.8756
3.92196	16.9231
3.919	16.9384
3.91604	16.9764
3.91308	17.0352
3.91013	17.0386
3.90718	17.0454
3.90424	17.0694
3.9013	17.1678
3.89837	17.2147
3.89544	17.1182
3.89252	17.1255
3.8896	17.2651
3.88668	17.2747
3.88377	17.2746
3.88086	17.3568
3.87796	17.3721
3.87506	17.4286
3.87217	17.449
3.86928	17.387
3.86639	17.3884
3.86351	17.4987
3.86064	17.4517
3.85776	17.3617
3.8549	17.4018
3.85203	17.5218
3.84917	17.5564
3.84631	17.5866
3.84346	17.6791
3.84062	17.7549
3.83777	17.6712
3.83494	17.6019
3.8321	17.5776
3.82927	17.6161
3.82644	17.6271
3.82362	17.7059
3.82081	17.8272
3.81799	17.8428
3.81518	17.8827
3.81238	18.0078
3.80958	18.0623
3.80678	18.0097
3.80399	18.0335
3.8012	18.0257
3.79841	18.1171
3.79563	18.2204
3.79286	18.2433
3.79008	18.2922
3.78731	18.3492
3.78455	18.4103
3.78179	18.4348
3.77903	18.5178
3.77628	18.6649
3.77353	18.7827
3.77079	18.8013
3.76805	18.8146
3.76531	18.8838
3.76258	18.9308
3.75985	18.9402
3.75713	19.0387
3.7544	19.1659
3.75169	19.2912
3.74898	19.3563
3.74627	19.3987
3.74356	19.4403
3.74086	19.6139
3.73816	19.7143
3.73547	19.7465
3.73278	19.8312
3.7301	19.9213
3.72741	19.998
3.72474	20.0753
3.72206	20.2196
3.71939	20.364
3.71673	20.4132
3.71406	20.4169
3.71141	20.4259
3.70875	20.4633
3.7061	20.618
3.70345	20.8274
3.70081	20.8917
3.69817	20.8405
3.69553	20.8953
3.6929	21.107
3.69027	21.2019
3.68765	21.2324
3.68503	21.2416
3.68241	21.2552
3.6798	21.3066
3.67719	21.4474
3.67458	21.5243
3.67198	21.5384
3.66938	21.5289
3.66678	21.5616
3.66419	21.5956
3.66161	21.6231
3.65902	21.6516
3.65644	21.6754
3.65387	21.6815
3.65129	21.6803
3.64872	21.7134
3.64616	21.7462
3.64359	21.8214
3.64103	21.8193
3.63848	21.7409
3.63593	21.713
3.63338	21.6726
3.63084	21.6641
3.6283	21.6315
3.62576	21.6532
3.62322	21.6644
3.62069	21.6306
3.61817	21.5746
3.61564	21.5424
3.61312	21.5079
3.61061	21.5105
3.6081	21.4894
3.60559	21.4369
3.60308	21.3671
3.60058	21.3192
3.59808	21.3404
3.59558	21.3437
3.59309	21.339
3.59061	21.3075
3.58812	21.2304
3.58564	21.1849
3.58316	21.2182
3.58069	21.1825
3.57822	21.1783
3.57575	21.1328
3.57328	21.0594
3.57082	21.1289
3.56836	21.149
3.56591	21.1016
3.56346	21.1605
3.56101	21.1703
3.55857	21.1837
3.55613	21.2243
3.55369	21.1907
3.55126	21.0813
3.54883	21.0866
3.5464	21.1769
3.54397	21.1518
3.54155	21.1367
3.53914	21.1174
3.53672	21.1001
3.53431	21.1151
3.5319	21.1578
3.5295	21.1517
3.5271	21.1386
3.5247	21.1477
3.52231	21.1721
3.51991	21.2177
3.51753	21.1692
3.51514	21.1012
3.51276	21.1251
3.51038	21.1494
3.50801	21.1855
3.50563	21.2226
3.50327	21.3065
3.5009	21.3334
3.49854	21.3035
3.49618	21.2777
3.49382	21.3429
3.49147	21.3664
3.48912	21.3509
3.48677	21.431
3.48443	21.6015
3.48209	21.6486
3.47975	21.6591
3.47742	21.6568
