Name: Ferroaxinite Ca_2Fe^2+Al_2BSi_4O_15(OH)
Type: Mineral
Class: Silicates
Subclass: Cyclosilicates
Particle Size: 45-125um
Sample No.: CS-4A
Owner: JPL
Wavelength range: IR
Origin: Mexico, Baja California Norte, Los Gavelontos
Collected by Ward's
Description: 





Measurement: Hemispherical reflectance
First Column: X
Second Column: Y
X Units:  Wavelength (micrometers)
Y Units:  Reflectance (percent)
First X Value: 15.3853
Last X Value: 2.00032
Number of X Values: 2256
Additional information: cs04aa.txt
 
15.3853	1.6051
15.3397	1.75721
15.2945	1.79014
15.2495	1.75444
15.2048	1.82484
15.1603	2.28775
15.1161	2.67428
15.0722	3.02613
15.0285	3.47882
14.9851	3.43009
14.9419	2.96534
14.8989	2.76691
14.8563	2.25274
14.8138	1.7355
14.7716	1.58647
14.7296	1.57722
14.6879	1.55135
14.6464	1.66818
14.6052	1.81358
14.5641	1.86003
14.5233	1.73058
14.4828	1.68912
14.4424	1.83302
14.4023	2.09682
14.3624	2.29972
14.3227	2.39179
14.2833	2.56177
14.244	2.59402
14.205	2.52609
14.1662	2.69745
14.1276	2.98831
14.0892	3.06505
14.051	3.02706
14.0131	3.11564
13.9753	3.15524
13.9377	3.41771
13.9004	3.76611
13.8632	3.82374
13.8262	3.77448
13.7895	3.80156
13.7529	3.86083
13.7165	4.02336
13.6803	4.09344
13.6443	4.09332
13.6085	4.13165
13.5729	4.18665
13.5374	4.24015
13.5022	4.26047
13.4671	4.25644
13.4322	4.26222
13.3975	4.44495
13.363	4.66936
13.3286	4.75192
13.2944	4.87456
13.2604	5.08035
13.2266	5.12837
13.193	5.07686
13.1595	5.14027
13.1262	5.23988
13.093	5.20016
13.06	5.27609
13.0272	5.49951
12.9946	5.47898
12.9621	5.46022
12.9298	5.49898
12.8976	5.55449
12.8656	5.62586
12.8337	5.70824
12.8021	5.59098
12.7705	5.3859
12.7391	5.28251
12.7079	5.17162
12.6769	5.2469
12.6459	5.37469
12.6152	5.42104
12.5845	5.54362
12.5541	5.66855
12.5238	5.83677
12.4936	6.09013
12.4635	6.2473
12.4337	6.29872
12.4039	6.49043
12.3743	6.66024
12.3448	6.79211
12.3155	6.90072
12.2863	7.07381
12.2573	7.42203
12.2284	7.70525
12.1996	7.94863
12.171	8.12404
12.1425	8.08986
12.1141	8.01991
12.0859	8.10699
12.0578	8.0484
12.0298	7.96743
12.0019	7.99911
11.9742	8.10123
11.9466	8.34593
11.9192	8.77595
11.8918	9.15909
11.8646	9.48175
11.8375	10.0106
11.8106	10.5072
11.7837	10.9459
11.757	11.3995
11.7304	11.7123
11.7039	11.9476
11.6776	12.0818
11.6513	12.2768
11.6252	12.4743
11.5992	12.6798
11.5733	13.0786
11.5475	13.7249
11.5219	14.4386
11.4963	14.9723
11.4709	15.4825
11.4455	15.94
11.4203	16.3928
11.3952	16.8046
11.3702	17.2765
11.3454	17.6853
11.3206	17.7806
11.2959	17.7191
11.2714	17.7353
11.2469	18.0478
11.2226	18.3221
11.1983	18.2163
11.1742	17.7994
11.1502	17.1438
11.1263	16.0649
11.1024	14.5447
11.0787	13.0831
11.0551	12.1227
11.0316	11.6941
11.0081	11.5485
10.9848	12.0078
10.9616	12.9467
10.9385	13.9236
10.9154	14.8926
10.8925	15.7852
10.8697	16.3781
10.8469	16.8072
10.8243	17.19
10.8017	17.4798
10.7793	17.7929
10.7569	18.2876
10.7346	18.9539
10.7125	19.7664
10.6904	20.7222
10.6684	21.6321
10.6465	22.5684
10.6247	23.4157
10.6029	24.1817
10.5813	24.619
10.5597	24.7539
10.5383	24.5461
10.5169	23.8976
10.4956	22.7856
10.4744	21.3206
10.4533	19.7356
10.4323	17.9333
10.4113	16.1503
10.3904	14.5815
10.3697	13.3834
10.349	12.4517
10.3284	11.633
10.3078	10.734
10.2874	9.695
10.267	8.75677
10.2467	8.01193
10.2265	7.54015
10.2064	7.3604
10.1863	7.40239
10.1663	7.53246
10.1464	7.72157
10.1266	7.92732
10.1069	7.99007
10.0872	7.87007
10.0676	7.69044
10.0481	7.59535
10.0287	7.7358
10.0093	8.16268
9.99005	8.80092
9.97084	9.36313
9.95169	9.77955
9.93263	9.9532
9.91364	9.84892
9.89472	9.50129
9.87587	8.78802
9.8571	7.97191
9.83839	7.20191
9.81976	6.61767
9.80119	6.04695
9.78271	5.57315
9.76428	5.51166
9.74592	5.73486
9.72764	6.24298
9.70943	7.13326
9.69128	8.12862
9.6732	9.21942
9.65518	10.4188
9.63724	11.6988
9.61935	12.8796
9.60155	14.0979
9.5838	15.0932
9.56611	15.7142
9.5485	16.2411
9.53094	16.6242
9.51345	16.6235
9.49604	16.4318
9.47867	16.2407
9.46137	16.1298
9.44414	16.3648
9.42697	17.1631
9.40986	18.3353
9.39281	19.654
9.37583	20.9511
9.35891	22.0101
9.34204	22.6352
9.32524	22.6672
9.3085	22.3485
9.29182	21.7239
9.27519	20.9399
9.25863	20.2931
9.24213	19.8855
9.22568	19.9557
9.2093	20.5835
9.19297	21.3882
9.17669	22.1824
9.16048	22.8672
9.14433	23.3085
9.12823	23.4374
9.11218	23.1525
9.0962	22.4496
9.08027	21.2864
9.06439	19.8233
9.04858	18.2722
9.03281	16.8254
9.0171	15.5757
9.00145	14.5393
8.98585	13.4538
8.9703	12.436
8.9548	11.4708
8.93937	10.6926
8.92398	9.96794
8.90865	9.23053
8.89337	8.67672
8.87814	8.11725
8.86296	7.45874
8.84784	6.99341
8.83277	6.68239
8.81774	6.43563
8.80277	6.2007
8.78786	6.15686
8.77298	6.12229
8.75816	5.9495
8.7434	5.8516
8.72868	5.81647
8.714	5.83072
8.69938	5.57481
8.68481	4.87575
8.67029	4.21282
8.65581	3.68556
8.64139	3.19899
8.62701	2.65397
8.61268	2.2892
8.5984	2.00089
8.58416	1.67264
8.56997	1.37397
8.55583	1.18211
8.54174	0.963354
8.52769	0.768138
8.51368	0.722392
8.49973	0.726077
8.48582	0.61504
8.47195	0.413947
8.45813	0.305529
8.44436	0.28974
8.43062	0.241587
8.41693	0.246796
8.4033	0.235732
8.3897	0.0864473
8.37614	-0.0438199
8.36264	0.0831991
8.34917	0.211295
8.33574	0.188422
8.32236	0.209753
8.30903	0.223551
8.29573	0.276455
8.28248	0.327808
8.26927	0.310191
8.2561	0.211414
8.24298	0.109546
8.2299	0.0859877
8.21685	0.0926798
8.20385	0.156268
8.19089	0.206185
8.17797	0.272627
8.16509	0.363664
8.15225	0.271018
8.13946	0.215939
8.1267	0.345599
8.11398	0.347112
8.10131	0.419948
8.08867	0.472619
8.07606	0.489065
8.0635	0.561784
8.05099	0.606995
8.0385	0.590766
8.02606	0.663678
8.01366	0.611654
8.00129	0.502754
7.98896	0.618908
7.97667	0.724725
7.96442	0.803277
7.9522	0.791986
7.94002	0.792293
7.92788	0.801566
7.91578	0.833562
7.90371	0.887839
7.89168	0.926966
7.87969	0.959806
7.86773	0.967107
7.85581	1.07293
7.84392	1.18711
7.83207	1.18026
7.82026	1.24995
7.80849	1.33551
7.79674	1.37306
7.78503	1.45447
7.77337	1.45358
7.76173	1.45805
7.75012	1.53541
7.73856	1.68799
7.72703	1.79305
7.71553	1.76456
7.70406	1.77083
7.69263	1.8538
7.68123	1.94318
7.66987	1.95245
7.65855	1.97928
7.64725	2.09384
7.63598	2.11747
7.62475	2.14054
7.61356	2.21666
7.60239	2.32322
7.59126	2.46786
7.58017	2.58028
7.5691	2.60352
7.55806	2.63103
7.54707	2.7239
7.5361	2.8493
7.52516	2.87686
7.51425	2.89848
7.50338	2.98569
7.49253	3.08257
7.48172	3.15485
7.47094	3.2969
7.46019	3.36295
7.44947	3.36101
7.43879	3.44995
7.42813	3.56638
7.4175	3.63144
7.4069	3.63708
7.39634	3.69395
7.3858	3.75147
7.37529	3.76214
7.36482	3.8357
7.35437	3.95047
7.34396	4.07529
7.33357	4.19458
7.32321	4.24663
7.31288	4.25631
7.30258	4.303
7.29231	4.34348
7.28207	4.40342
7.27185	4.49967
7.26167	4.62185
7.25152	4.67313
7.24139	4.71144
7.23129	4.75315
7.22122	4.76777
7.21117	4.90116
7.20116	5.03592
7.19117	5.09714
7.18121	5.25755
7.17128	5.37809
7.16137	5.35761
7.1515	5.45928
7.14164	5.52313
7.13182	5.48552
7.12203	5.50482
7.11225	5.58207
7.10251	5.65394
7.0928	5.81898
7.08311	5.87327
7.07344	5.85522
7.06381	5.94085
7.0542	6.07985
7.04461	6.1474
7.03506	6.07211
7.02552	6.00087
7.01601	6.0442
7.00653	6.16352
6.99708	6.19033
6.98765	6.1496
6.97824	6.1296
6.96886	6.28899
6.95951	6.46669
6.95018	6.34661
6.94087	6.31968
6.9316	6.38127
6.92234	6.37095
6.91311	6.39184
6.90391	6.38067
6.89473	6.37157
6.88557	6.40709
6.87644	6.58293
6.86733	6.76904
6.85824	6.70144
6.84918	6.57182
6.84015	6.51115
6.83114	6.51916
6.82215	6.45537
6.81319	6.42883
6.80424	6.52594
6.79532	6.71128
6.78643	6.77276
6.77756	6.71571
6.76871	6.67251
6.75989	6.57826
6.75109	6.51724
6.74231	6.48916
6.73355	6.61783
6.72482	6.69363
6.71611	6.74709
6.70742	6.77818
6.69875	6.66719
6.69011	6.74926
6.68149	6.91704
6.67289	6.90092
6.66431	6.82795
6.65576	6.80286
6.64722	7.05972
6.63871	7.39681
6.63022	7.31066
6.62175	7.14193
6.61331	7.16073
6.60488	7.17053
6.59648	7.28054
6.5881	7.42274
6.57974	7.62423
6.5714	7.74283
6.56308	7.54441
6.55478	7.52794
6.54651	7.5128
6.53825	7.55282
6.53001	7.60327
6.5218	7.68448
6.51361	7.69621
6.50544	7.7233
6.49729	8.0777
6.48915	8.23084
6.48104	8.05819
6.47295	7.98568
6.46488	7.87712
6.45683	7.80543
6.4488	7.88684
6.44079	7.99717
6.4328	8.15477
6.42482	8.24274
6.41687	8.58834
6.40894	8.53341
6.40103	8.14402
6.39314	8.08408
6.38526	8.11603
6.37741	8.30428
6.36957	8.47857
6.36176	8.41744
6.35396	8.44598
6.34618	8.75666
6.33843	8.67791
6.33069	8.45529
6.32297	8.52124
6.31527	8.53682
6.30758	8.53903
6.29992	8.59894
6.29227	8.62979
6.28465	8.63984
6.27704	8.71494
6.26945	8.68772
6.26188	8.60167
6.25432	8.63688
6.24679	8.7256
6.23927	8.75684
6.23177	8.81137
6.22429	8.87026
6.21683	8.92868
6.20938	8.97271
6.20195	8.95694
6.19454	9.09973
6.18715	9.44188
6.17978	9.48574
6.17242	9.36844
6.16508	9.48118
6.15776	9.5151
6.15045	9.46376
6.14317	9.55036
6.1359	9.52952
6.12864	9.52818
6.12141	9.78424
6.11419	10.0731
6.10699	9.84906
6.0998	9.55924
6.09263	9.5023
6.08549	9.56269
6.07835	9.77425
6.07123	9.85785
6.06413	9.71053
6.05705	10.0076
6.04998	10.5753
6.04293	10.2086
6.0359	9.69444
6.02888	9.55541
6.02187	9.54603
6.01489	9.61391
6.00792	9.52929
6.00096	9.38111
5.99403	9.47201
5.98711	9.48675
5.9802	9.21989
5.97331	9.08301
5.96644	8.99117
5.95958	8.7657
5.95274	8.72697
5.94591	8.67785
5.9391	8.90546
5.9323	8.77818
5.92552	8.28107
5.91876	8.01083
5.91201	7.90166
5.90528	7.75726
5.89856	7.79695
5.89186	7.66096
5.88517	7.53214
5.8785	7.35692
5.87184	6.83229
5.8652	6.58027
5.85857	6.41645
5.85196	6.24377
5.84536	6.04227
5.83878	5.82986
5.83221	5.66616
5.82566	5.62275
5.81912	5.52919
5.81259	5.32753
5.80608	5.17432
5.79959	4.96871
5.79311	4.90925
5.78665	4.91799
5.78019	4.87642
5.77376	4.79787
5.76734	4.82489
5.76093	4.71303
5.75453	4.58382
5.74815	4.62427
5.74179	4.63542
5.73543	4.66315
5.7291	4.72086
5.72277	4.88094
5.71646	5.04836
5.71017	5.14149
5.70389	5.18906
5.69762	5.2874
5.69136	5.39256
5.68513	5.44634
5.6789	5.69807
5.67268	5.91719
5.66648	5.99108
5.6603	6.17538
5.65413	6.40263
5.64797	6.67506
5.64182	6.94456
5.63569	7.02562
5.62957	7.06821
5.62347	7.15576
5.61737	7.30637
5.61129	7.4424
5.60522	7.50608
5.59917	7.50711
5.59313	7.53054
5.5871	7.70877
5.58109	7.88168
5.57509	7.91554
5.5691	7.88633
5.56312	7.9968
5.55716	8.1919
5.55121	8.30043
5.54528	8.34046
5.53935	8.35729
5.53344	8.35866
5.52754	8.44442
5.52166	8.50687
5.51578	8.54828
5.50992	8.59242
5.50407	8.64458
5.49823	8.62012
5.49241	8.57004
5.4866	8.56635
5.4808	8.65992
5.47501	8.64641
5.46923	8.6693
5.46347	8.69749
5.45772	8.63864
5.45198	8.61146
5.44625	8.64047
5.44054	8.66839
5.43484	8.71638
5.42914	8.72791
5.42347	8.78406
5.4178	8.81348
5.41214	8.85008
5.4065	8.95017
5.40087	9.02243
5.39525	9.12677
5.38964	9.19017
5.38404	9.18727
5.37846	9.17824
5.37288	9.21337
5.36732	9.28653
5.36177	9.29609
5.35623	9.37191
5.35071	9.44346
5.34519	9.42712
5.33968	9.46793
5.33419	9.5199
5.32871	9.52172
5.32324	9.61368
5.31778	9.75474
5.31233	9.81553
5.30689	9.91165
5.30147	10.0513
5.29605	10.1616
5.29065	10.2924
5.28525	10.3503
5.27987	10.3485
5.2745	10.3524
5.26914	10.3841
5.26379	10.44
5.25845	10.4278
5.25312	10.3612
5.24781	10.3604
5.2425	10.4394
5.23721	10.5286
5.23192	10.5027
5.22665	10.4355
5.22138	10.407
5.21613	10.4782
5.21089	10.5079
5.20566	10.4735
5.20044	10.4554
5.19522	10.4261
5.19002	10.4162
5.18483	10.5117
5.17965	10.549
5.17448	10.496
5.16933	10.3869
5.16418	10.4356
5.15904	10.5244
5.15391	10.6257
5.14879	10.7634
5.14368	10.7978
5.13859	10.8423
5.1335	10.9578
5.12842	11.0487
5.12335	11.2309
5.1183	11.3559
5.11325	11.364
5.10821	11.4117
5.10318	11.5522
5.09817	11.6622
5.09316	11.7425
5.08816	11.8206
5.08317	11.8607
5.07819	11.9024
5.07322	12.0333
5.06826	12.1058
5.06331	12.1363
5.05837	12.1899
5.05344	12.3076
5.04852	12.399
5.04361	12.5226
5.03871	12.5718
5.03382	12.6689
5.02894	12.7979
5.02406	12.9272
5.0192	13.0492
5.01435	13.1203
5.0095	13.1849
5.00467	13.3182
4.99984	13.4207
4.99502	13.5119
4.99021	13.5905
4.98542	13.6774
4.98063	13.7843
4.97585	13.8447
4.97108	13.8996
4.96632	13.9714
4.96156	14.0954
4.95682	14.2282
4.95209	14.2751
4.94736	14.3559
4.94264	14.5047
4.93794	14.6834
4.93324	14.801
4.92855	14.8702
4.92387	14.9829
4.9192	15.1339
4.91453	15.2585
4.90988	15.403
4.90524	15.5411
4.9006	15.7276
4.89597	15.8921
4.89135	16.0346
4.88674	16.2205
4.88214	16.425
4.87755	16.5872
4.87296	16.782
4.86839	17.0088
4.86382	17.1255
4.85926	17.2534
4.85471	17.4273
4.85017	17.5961
4.84564	17.8014
4.84111	17.9931
4.8366	18.0838
4.83209	18.2015
4.82759	18.3449
4.8231	18.4696
4.81862	18.6183
4.81415	18.7373
4.80968	18.8436
4.80522	19.0102
4.80077	19.1951
4.79633	19.3181
4.7919	19.4972
4.78747	19.7566
4.78306	19.9748
4.77865	20.1319
4.77425	20.3834
4.76986	20.6614
4.76547	20.8605
4.7611	21.0113
4.75673	21.1673
4.75237	21.339
4.74802	21.5389
4.74367	21.7781
4.73934	22.0242
4.73501	22.1898
4.73069	22.2681
4.72638	22.3985
4.72207	22.5764
4.71777	22.8052
4.71348	22.998
4.7092	23.1274
4.70493	23.3135
4.70066	23.6017
4.69641	23.8058
4.69216	24.0216
4.68791	24.3072
4.68368	24.5362
4.67945	24.8403
4.67523	25.1628
4.67102	25.3594
4.66682	25.5723
4.66262	25.8962
4.65843	26.2176
4.65425	26.4883
4.65007	26.7532
4.64591	27.051
4.64175	27.3146
4.6376	27.556
4.63345	27.8364
4.62932	28.1765
4.62519	28.5351
4.62106	28.7907
4.61695	28.9976
4.61284	29.329
4.60874	29.5508
4.60465	29.6791
4.60056	29.8721
4.59648	30.104
4.59241	30.2075
4.58835	30.3403
4.58429	30.464
4.58024	30.478
4.5762	30.485
4.57216	30.4862
4.56814	30.4384
4.56411	30.5486
4.5601	30.6679
4.55609	30.6862
4.55209	30.6574
4.5481	30.6426
4.54411	30.6431
4.54013	30.6415
4.53616	30.6664
4.5322	30.7278
4.52824	30.7567
4.52429	30.7749
4.52034	30.7793
4.51641	30.7526
4.51247	30.7338
4.50855	30.7344
4.50463	30.8596
4.50072	30.9584
4.49682	31.0774
4.49292	31.3569
4.48903	31.6321
4.48515	31.836
4.48127	32.1012
4.4774	32.3776
4.47354	32.7107
4.46968	33.0086
4.46584	33.2676
4.46199	33.5338
4.45815	33.7698
4.45432	34.0051
4.4505	34.2946
4.44668	34.6359
4.44287	34.928
4.43907	35.2606
4.43527	35.5493
4.43148	35.8757
4.4277	36.2112
4.42392	36.488
4.42015	36.722
4.41638	36.954
4.41262	37.2681
4.40887	37.5845
4.40513	37.8571
4.40139	38.1491
4.39765	38.5167
4.39393	38.8811
4.39021	39.1822
4.38649	39.4634
4.38278	39.7113
4.37908	40.0302
4.37539	40.3581
4.3717	40.6295
4.36801	40.8583
4.36434	41.0643
4.36067	41.3094
4.357	41.5692
4.35335	41.7404
4.34969	41.9307
4.34605	42.1093
4.34241	42.2621
4.33877	42.4626
4.33514	42.6503
4.33152	42.8317
4.32791	43.0865
4.3243	43.1643
4.32069	43.1701
4.3171	43.2873
4.31351	43.5069
4.30992	43.7068
4.30634	43.8555
4.30277	43.9967
4.2992	44.1613
4.29564	44.2726
4.29208	44.3503
4.28853	44.4737
4.28499	44.6171
4.28145	44.7444
4.27792	44.8269
4.27439	44.8374
4.27087	44.8781
4.26735	44.8928
4.26384	44.8852
4.26034	44.8767
4.25684	44.9481
4.25335	45.0917
4.24986	45.2303
4.24638	45.3048
4.24291	45.4133
4.23944	45.5704
4.23598	45.7462
4.23252	45.8203
4.22906	45.8378
4.22562	45.8165
4.22218	45.8533
4.21874	45.7866
4.21531	45.7149
4.21189	45.7463
4.20847	45.7509
4.20506	45.7467
4.20165	45.732
4.19825	45.7516
4.19485	45.7672
4.19146	45.7749
4.18807	45.8141
4.18469	45.8642
4.18132	45.9531
4.17795	46.0174
4.17458	46.024
4.17123	46.0034
4.16787	46.0344
4.16453	46.0734
4.16118	46.0941
4.15785	46.125
4.15451	46.1008
4.15119	46.0981
4.14787	46.1138
4.14455	46.1104
4.14124	46.0991
4.13794	46.0826
4.13464	46.0911
4.13134	46.0505
4.12805	46.0469
4.12477	46.0021
4.12149	45.9325
4.11822	45.9127
4.11495	45.8802
4.11168	45.8198
4.10843	45.7945
4.10517	45.7681
4.10192	45.6876
4.09868	45.6075
4.09545	45.5743
4.09221	45.4797
4.08899	45.4076
4.08576	45.3104
4.08255	45.2324
4.07933	45.2679
4.07613	45.2385
4.07292	45.116
4.06973	45.0543
4.06654	45.0014
4.06335	45.0171
4.06017	45.0583
4.05699	44.9861
4.05382	44.9581
4.05065	44.9413
4.04749	44.8697
4.04433	44.7856
4.04118	44.6835
4.03803	44.6974
4.03489	44.8166
4.03175	44.8499
4.02862	44.8996
4.02549	44.982
4.02237	45.1082
4.01925	45.2949
4.01614	45.4668
4.01303	45.5627
4.00993	45.6515
4.00683	45.7824
4.00373	45.8465
4.00064	45.9691
3.99756	46.1044
3.99448	46.0199
3.9914	45.8323
3.98833	45.6344
3.98527	45.3236
3.98221	45.0383
3.97915	44.952
3.9761	45.0057
3.97305	45.2975
3.97001	45.7224
3.96697	46.1456
3.96394	46.4257
3.96091	46.5638
3.95789	46.6338
3.95487	46.6919
3.95186	46.7855
3.94885	46.808
3.94584	46.8062
3.94284	46.8157
3.93984	46.7841
3.93685	46.7806
3.93386	46.8124
3.93088	46.822
3.9279	46.8293
3.92493	46.8976
3.92196	47.0367
3.919	47.1199
3.91604	47.1779
3.91308	47.2524
3.91013	47.3421
3.90718	47.4879
3.90424	47.6058
3.9013	47.64
3.89837	47.6634
3.89544	47.6717
3.89252	47.6385
3.8896	47.6549
3.88668	47.6786
3.88377	47.6607
3.88086	47.632
3.87796	47.5921
3.87506	47.445
3.87217	47.375
3.86928	47.3209
3.86639	47.1579
3.86351	47.0646
3.86064	46.8681
3.85776	46.6298
3.8549	46.4765
3.85203	46.2439
3.84917	46.0325
3.84631	45.8715
3.84346	45.6771
3.84062	45.4811
3.83777	45.2641
3.83494	45.0854
3.8321	44.8752
3.82927	44.6966
3.82644	44.5671
3.82362	44.4258
3.82081	44.2179
3.81799	44.0578
3.81518	43.9228
3.81238	43.7275
3.80958	43.5379
3.80678	43.4612
3.80399	43.4377
3.8012	43.3535
3.79841	43.2151
3.79563	43.1401
3.79286	43.1462
3.79008	43.1239
3.78731	43.1554
3.78455	43.2277
3.78179	43.3164
3.77903	43.3035
3.77628	43.3413
3.77353	43.3613
3.77079	43.4187
3.76805	43.5517
3.76531	43.6192
3.76258	43.6379
3.75985	43.6418
3.75713	43.7375
3.7544	43.8773
3.75169	44.0225
3.74898	44.1106
3.74627	44.1557
3.74356	44.2039
3.74086	44.2297
3.73816	44.2606
3.73547	44.2923
3.73278	44.2788
3.7301	44.2393
3.72741	44.1449
3.72474	44.0378
3.72206	44.0407
3.71939	44.0544
3.71673	43.9393
3.71406	43.8385
3.71141	43.7463
3.70875	43.5854
3.7061	43.4759
3.70345	43.3534
3.70081	43.2338
3.69817	43.0585
3.69553	42.882
3.6929	42.7542
3.69027	42.5728
3.68765	42.3826
3.68503	42.1836
3.68241	41.9812
3.6798	41.8575
3.67719	41.7448
3.67458	41.5809
3.67198	41.3624
3.66938	41.2115
3.66678	41.0914
3.66419	40.9689
3.66161	40.9144
3.65902	40.8626
3.65644	40.8032
3.65387	40.7456
3.65129	40.7214
3.64872	40.7845
3.64616	40.9193
3.64359	40.9261
3.64103	40.8602
3.63848	40.907
3.63593	41.0998
3.63338	41.2503
3.63084	41.2413
3.6283	41.3185
3.62576	41.5235
3.62322	41.5828
3.62069	41.6259
3.61817	41.6981
3.61564	41.7413
3.61312	41.8014
3.61061	41.8611
3.6081	41.8635
3.60559	41.8518
3.60308	41.8523
3.60058	41.8999
3.59808	41.8894
3.59558	41.8251
3.59309	41.8123
3.59061	41.8712
3.58812	41.8006
3.58564	41.7011
3.58316	41.686
3.58069	41.6257
3.57822	41.5055
3.57575	41.4698
3.57328	41.4541
3.57082	41.4162
3.56836	41.3609
3.56591	41.1798
3.56346	41.0188
3.56101	40.9883
3.55857	40.907
3.55613	40.8569
3.55369	40.8403
3.55126	40.6547
3.54883	40.4906
3.5464	40.4287
3.54397	40.3422
3.54155	40.2444
3.53914	40.1576
3.53672	40.0942
3.53431	39.9587
3.5319	39.8689
3.5295	39.8531
3.5271	39.9011
3.5247	39.8814
3.52231	39.8016
3.51991	39.6687
3.51753	39.5662
3.51514	39.58
3.51276	39.6657
3.51038	39.6359
3.50801	39.5814
3.50563	39.5424
3.50327	39.4429
3.5009	39.3302
3.49854	39.3277
3.49618	39.3199
3.49382	39.2594
3.49147	39.1092
3.48912	38.9801
3.48677	38.9036
3.48443	38.7713
3.48209	38.6226
