Name: Quartz SiO_2
Type: Mineral
Class: Silicates
Subclass: Tectosilicates
Particle Size: 45-125um
Sample No.: TS-1B
Owner: JPL
Wavelength range: IR
Origin: Brazil, Minas Gerais
Collected by Burminco
Description:  Smoky quartz. 





Measurement: Hemispherical reflectance
First Column: X
Second Column: Y
X Units:  Wavelength (micrometers)
Y Units:  Reflectance (percent)
First X Value: 15.3853
Last X Value: 2.00032
Number of X Values: 2256
Additional information: ts01ba.txt
 
15.3853	7.12845
15.3397	7.48859
15.2945	7.42381
15.2495	7.03643
15.2048	7.05989
15.1603	7.1895
15.1161	7.01147
15.0722	6.78202
15.0285	6.51446
14.9851	6.25577
14.9419	6.17967
14.8989	6.10928
14.8563	6.17038
14.8138	5.92616
14.7716	5.43765
14.7296	5.19564
14.6879	5.21144
14.6464	5.05871
14.6052	4.88229
14.5641	4.86644
14.5233	4.56169
14.4828	4.6062
14.4424	4.81648
14.4023	4.90201
14.3624	4.40656
14.3227	3.42074
14.2833	2.81874
14.244	2.78586
14.205	3.19325
14.1662	3.74449
14.1276	4.12612
14.0892	4.44707
14.051	4.48657
14.0131	4.62614
13.9753	4.94369
13.9377	5.07141
13.9004	5.18539
13.8632	5.49754
13.8262	5.71162
13.7895	5.78962
13.7529	5.93928
13.7165	5.94693
13.6803	5.7996
13.6443	5.82137
13.6085	5.91854
13.5729	5.8925
13.5374	5.79208
13.5022	5.87281
13.4671	5.89266
13.4322	5.84166
13.3975	5.84498
13.363	5.88285
13.3286	5.9808
13.2944	6.01335
13.2604	6.08127
13.2266	6.19446
13.193	6.10529
13.1595	6.15036
13.1262	6.43283
13.093	6.67833
13.06	6.99049
13.0272	7.2337
12.9946	7.50604
12.9621	8.16384
12.9298	9.15754
12.8976	10.2479
12.8656	11.5465
12.8337	12.6598
12.8021	13.123
12.7705	12.857
12.7391	11.9073
12.7079	10.4453
12.6769	8.94754
12.6459	8.0712
12.6152	8.11789
12.5845	8.99231
12.5541	9.99698
12.5238	10.7796
12.4936	11.1613
12.4635	10.8953
12.4337	9.92724
12.4039	7.78598
12.3743	4.82018
12.3448	2.47622
12.3155	1.38524
12.2863	1.08926
12.2573	0.989549
12.2284	1.27209
12.1996	1.50356
12.171	1.74129
12.1425	2.07688
12.1141	2.21132
12.0859	2.46071
12.0578	2.72307
12.0298	2.95943
12.0019	3.16051
11.9742	3.2493
11.9466	3.52172
11.9192	3.7592
11.8918	3.89272
11.8646	4.00887
11.8375	4.1276
11.8106	4.37952
11.7837	4.64982
11.757	4.75145
11.7304	4.89977
11.7039	4.99119
11.6776	5.01859
11.6513	4.99789
11.6252	5.05195
11.5992	5.31739
11.5733	5.52145
11.5475	5.55837
11.5219	5.74289
11.4963	5.93339
11.4709	5.89231
11.4455	5.73249
11.4203	5.8612
11.3952	6.09027
11.3702	6.2336
11.3454	6.31755
11.3206	6.34935
11.2959	6.26675
11.2714	6.24782
11.2469	6.33802
11.2226	6.44177
11.1983	6.38189
11.1742	6.4008
11.1502	6.44691
11.1263	6.66362
11.1024	6.79984
11.0787	6.78254
11.0551	6.87685
11.0316	7.01365
11.0081	7.07672
10.9848	6.99578
10.9616	6.95876
10.9385	7.01171
10.9154	7.17873
10.8925	7.24111
10.8697	7.18545
10.8469	7.20694
10.8243	7.28751
10.8017	7.28054
10.7793	7.1534
10.7569	7.13466
10.7346	7.1998
10.7125	7.18422
10.6904	7.1183
10.6684	7.17356
10.6465	7.19143
10.6247	7.21424
10.6029	7.24351
10.5813	7.31647
10.5597	7.35053
10.5383	7.50205
10.5169	7.53712
10.4956	7.4717
10.4744	7.44472
10.4533	7.54433
10.4323	7.54839
10.4113	7.64562
10.3904	7.7047
10.3697	7.7055
10.349	7.79696
10.3284	7.83731
10.3078	7.82585
10.2874	7.87908
10.267	7.97462
10.2467	8.05239
10.2265	8.14359
10.2064	8.31279
10.1863	8.38073
10.1663	8.48688
10.1464	8.55077
10.1266	8.7232
10.1069	8.79779
10.0872	8.7735
10.0676	8.8213
10.0481	9.04065
10.0287	9.29868
10.0093	9.4002
9.99005	9.45704
9.97084	9.52602
9.95169	9.63744
9.93263	9.88028
9.91364	10.0849
9.89472	10.3034
9.87587	10.537
9.8571	10.6358
9.83839	10.8895
9.81976	11.2224
9.80119	11.4228
9.78271	11.7545
9.76428	12.1272
9.74592	12.4251
9.72764	12.8002
9.70943	13.2478
9.69128	13.6123
9.6732	13.9216
9.65518	14.3304
9.63724	14.9467
9.61935	15.4935
9.60155	15.8415
9.5838	16.3405
9.56611	17.0859
9.5485	17.7461
9.53094	18.4685
9.51345	19.5919
9.49604	20.8529
9.47867	22.0897
9.46137	23.5346
9.44414	25.3479
9.42697	27.6148
9.40986	30.2353
9.39281	33.4949
9.37583	37.0639
9.35891	40.539
9.34204	43.7723
9.32524	46.5625
9.3085	48.7858
9.29182	50.3511
9.27519	51.4423
9.25863	52.256
9.24213	52.818
9.22568	53.2266
9.2093	53.5985
9.19297	53.8987
9.17669	54.0718
9.16048	54.3193
9.14433	54.6433
9.12823	54.7932
9.11218	54.8709
9.0962	54.9523
9.08027	55.1642
9.06439	55.2695
9.04858	55.3094
9.03281	55.3163
9.0171	55.262
9.00145	55.2298
8.98585	55.2134
8.9703	55.1555
8.9548	55.1563
8.93937	55.1008
8.92398	54.9401
8.90865	54.6321
8.89337	54.4192
8.87814	54.2136
8.86296	53.9195
8.84784	53.5589
8.83277	53.0099
8.81774	52.2706
8.80277	51.5913
8.78786	50.931
8.77298	50.2604
8.75816	49.6347
8.7434	49.0135
8.72868	48.1992
8.714	47.1763
8.69938	45.8348
8.68481	43.9961
8.67029	41.0087
8.65581	36.6321
8.64139	32.1794
8.62701	30.1106
8.61268	32.1164
8.5984	36.8377
8.58416	41.4593
8.56997	44.7126
8.55583	46.8055
8.54174	48.1181
8.52769	48.9604
8.51368	49.3954
8.49973	49.5459
8.48582	49.5878
8.47195	49.617
8.45813	49.6423
8.44436	49.3866
8.43062	49.0882
8.41693	48.8144
8.4033	48.5639
8.3897	48.283
8.37614	47.9491
8.36264	47.5897
8.34917	47.3615
8.33574	47.1378
8.32236	46.9061
8.30903	46.792
8.29573	46.6783
8.28248	46.5326
8.26927	46.4608
8.2561	46.3826
8.24298	46.1424
8.2299	45.6998
8.21685	45.2046
8.20385	44.3985
8.19089	43.308
8.17797	42.0482
8.16509	40.4831
8.15225	38.3966
8.13946	35.968
8.1267	33.4639
8.11398	31.0333
8.10131	28.7886
8.08867	26.754
8.07606	24.6888
8.0635	22.7087
8.05099	21.0534
8.0385	19.5839
8.02606	18.117
8.01366	16.7358
8.00129	15.5223
7.98896	14.3925
7.97667	13.2926
7.96442	12.1284
7.9522	10.9562
7.94002	9.91519
7.92788	8.92759
7.91578	7.99946
7.90371	7.17495
7.89168	6.49401
7.87969	5.85087
7.86773	5.32854
7.85581	4.92171
7.84392	4.4637
7.83207	4.02398
7.82026	3.63921
7.80849	3.32772
7.79674	3.17047
7.78503	3.00615
7.77337	2.74356
7.76173	2.49426
7.75012	2.23551
7.73856	1.97732
7.72703	1.82302
7.71553	1.68143
7.70406	1.45495
7.69263	1.2764
7.68123	1.20914
7.66987	1.13121
7.65855	0.995062
7.64725	0.864612
7.63598	0.787674
7.62475	0.781518
7.61356	0.624864
7.60239	0.407528
7.59126	0.406693
7.58017	0.399705
7.5691	0.2882
7.55806	0.276995
7.54707	0.21343
7.5361	0.117209
7.52516	0.102158
7.51425	0.182254
7.50338	0.18755
7.49253	0.107917
7.48172	0.0982838
7.47094	0.126525
7.46019	0.162445
7.44947	0.132024
7.43879	0.0995911
7.42813	0.125826
7.4175	0.0921384
7.4069	0.0523363
7.39634	0.0289446
7.3858	-0.0446669
7.37529	-0.0389225
7.36482	0.0284201
7.35437	0.146804
7.34396	0.151824
7.33357	0.0338252
7.32321	0.019353
7.31288	0.0638311
7.30258	0.0203815
7.29231	0.00149387
7.28207	0.0117288
7.27185	0.00340856
7.26167	0.0888634
7.25152	0.146259
7.24139	0.169635
7.23129	0.172207
7.22122	0.162854
7.21117	0.140719
7.20116	0.21743
7.19117	0.3113
7.18121	0.347045
7.17128	0.324273
7.16137	0.346187
7.1515	0.37389
7.14164	0.381459
7.13182	0.371223
7.12203	0.35429
7.11225	0.435503
7.10251	0.563555
7.0928	0.525136
7.08311	0.522767
7.07344	0.601288
7.06381	0.595102
7.0542	0.607126
7.04461	0.60571
7.03506	0.538493
7.02552	0.678655
7.01601	0.833151
7.00653	0.867187
6.99708	0.812806
6.98765	0.872774
6.97824	0.927559
6.96886	0.991832
6.95951	1.06619
6.95018	1.06997
6.94087	1.1125
6.9316	1.17869
6.92234	1.27063
6.91311	1.31628
6.90391	1.31285
6.89473	1.33692
6.88557	1.37141
6.87644	1.35222
6.86733	1.32742
6.85824	1.31517
6.84918	1.30818
6.84015	1.34987
6.83114	1.36096
6.82215	1.31571
6.81319	1.30427
6.80424	1.32546
6.79532	1.35028
6.78643	1.34108
6.77756	1.23362
6.76871	1.18119
6.75989	1.26075
6.75109	1.25023
6.74231	1.15996
6.73355	1.13435
6.72482	1.10505
6.71611	1.10564
6.70742	1.16322
6.69875	1.20953
6.69011	1.26383
6.68149	1.24346
6.67289	1.23379
6.66431	1.32667
6.65576	1.38884
6.64722	1.351
6.63871	1.41658
6.63022	1.48504
6.62175	1.48862
6.61331	1.43727
6.60488	1.33426
6.59648	1.27882
6.5881	1.2646
6.57974	1.32783
6.5714	1.35868
6.56308	1.319
6.55478	1.32599
6.54651	1.388
6.53825	1.41603
6.53001	1.50112
6.5218	1.64423
6.51361	1.83735
6.50544	2.06313
6.49729	2.29527
6.48915	2.5366
6.48104	2.76733
6.47295	2.93266
6.46488	3.17245
6.45683	3.42513
6.4488	3.56704
6.44079	3.61093
6.4328	3.71298
6.42482	3.8621
6.41687	3.88969
6.40894	3.72038
6.40103	3.63643
6.39314	3.53316
6.38526	3.34195
6.37741	3.15167
6.36957	2.9099
6.36176	2.69758
6.35396	2.57141
6.34618	2.4604
6.33843	2.3643
6.33069	2.17776
6.32297	2.05223
6.31527	2.00521
6.30758	1.84614
6.29992	1.75449
6.29227	1.6971
6.28465	1.5588
6.27704	1.45683
6.26945	1.44289
6.26188	1.34388
6.25432	1.25709
6.24679	1.35253
6.23927	1.33886
6.23177	1.24135
6.22429	1.17192
6.21683	1.20031
6.20938	1.24253
6.20195	1.24386
6.19454	1.21933
6.18715	1.1975
6.17978	1.26595
6.17242	1.33846
6.16508	1.39901
6.15776	1.52929
6.15045	1.69304
6.14317	1.92285
6.1359	2.08914
6.12864	2.25571
6.12141	2.472
6.11419	2.65882
6.10699	2.78728
6.0998	2.87806
6.09263	3.06884
6.08549	3.26721
6.07835	3.41856
6.07123	3.49595
6.06413	3.59185
6.05705	3.71111
6.04998	3.71702
6.04293	3.59296
6.0359	3.56016
6.02888	3.54702
6.02187	3.50241
6.01489	3.47629
6.00792	3.42715
6.00096	3.31158
5.99403	3.14066
5.98711	2.95235
5.9802	2.80553
5.97331	2.69407
5.96644	2.50602
5.95958	2.2961
5.95274	2.17056
5.94591	2.13508
5.9391	2.19214
5.9323	2.24904
5.92552	2.33925
5.91876	2.49387
5.91201	2.61121
5.90528	2.75322
5.89856	2.98797
5.89186	3.08503
5.88517	3.28095
5.8785	3.58076
5.87184	3.72316
5.8652	3.91201
5.85857	4.14276
5.85196	4.39253
5.84536	4.69054
5.83878	4.89976
5.83221	5.14801
5.82566	5.48212
5.81912	5.72239
5.81259	5.81831
5.80608	5.98533
5.79959	6.2614
5.79311	6.47491
5.78665	6.69541
5.78019	7.02855
5.77376	7.33482
5.76734	7.60282
5.76093	7.75867
5.75453	7.96739
5.74815	8.29881
5.74179	8.53246
5.73543	8.66284
5.7291	8.70625
5.72277	8.81449
5.71646	8.93709
5.71017	8.91568
5.70389	8.72539
5.69762	8.57538
5.69136	8.39462
5.68513	8.01069
5.6789	7.56237
5.67268	7.01344
5.66648	6.38105
5.6603	5.7974
5.65413	5.25183
5.64797	4.77597
5.64182	4.40871
5.63569	3.95673
5.62957	3.57714
5.62347	3.36961
5.61737	3.19253
5.61129	3.02082
5.60522	2.96071
5.59917	2.91217
5.59313	2.83852
5.5871	2.86327
5.58109	2.88842
5.57509	2.85237
5.5691	2.80422
5.56312	2.80826
5.55716	2.91737
5.55121	3.02062
5.54528	3.05272
5.53935	3.11371
5.53344	3.25891
5.52754	3.39708
5.52166	3.57926
5.51578	3.7988
5.50992	3.99636
5.50407	4.17686
5.49823	4.33256
5.49241	4.59343
5.4866	4.85886
5.4808	5.07903
5.47501	5.2894
5.46923	5.49776
5.46347	5.55444
5.45772	5.56937
5.45198	5.66982
5.44625	5.66106
5.44054	5.41278
5.43484	5.14013
5.42914	4.86377
5.42347	4.47141
5.4178	4.01771
5.41214	3.68376
5.4065	3.3769
5.40087	3.00695
5.39525	2.67686
5.38964	2.39193
5.38404	2.14995
5.37846	2.01189
5.37288	1.87056
5.36732	1.7912
5.36177	1.74569
5.35623	1.70711
5.35071	1.71577
5.34519	1.67728
5.33968	1.67938
5.33419	1.7192
5.32871	1.72659
5.32324	1.70226
5.31778	1.68339
5.31233	1.77649
5.30689	1.74022
5.30147	1.73344
5.29605	1.85394
5.29065	1.9342
5.28525	1.98623
5.27987	2.01327
5.2745	2.04546
5.26914	2.13755
5.26379	2.23947
5.25845	2.39862
5.25312	2.57526
5.24781	2.74441
5.2425	2.9787
5.23721	3.32764
5.23192	3.76073
5.22665	4.12794
5.22138	4.49076
5.21613	4.81621
5.21089	5.02033
5.20566	5.24392
5.20044	5.44344
5.19522	5.47177
5.19002	5.48736
5.18483	5.51762
5.17965	5.41581
5.17448	5.35718
5.16933	5.38693
5.16418	5.34204
5.15904	5.19888
5.15391	5.18418
5.14879	5.16753
5.14368	5.03692
5.13859	4.93707
5.1335	4.95035
5.12842	4.93808
5.12335	4.93568
5.1183	4.94245
5.11325	4.91939
5.10821	4.92041
5.10318	4.82313
5.09817	4.70108
5.09316	4.5374
5.08816	4.4116
5.08317	4.28082
5.07819	4.0626
5.07322	3.89153
5.06826	3.90006
5.06331	3.91234
5.05837	3.82541
5.05344	3.85062
5.04852	3.85864
5.04361	3.78419
5.03871	3.77377
5.03382	3.75991
5.02894	3.72084
5.02406	3.68623
5.0192	3.64557
5.01435	3.67542
5.0095	3.70159
5.00467	3.68376
4.99984	3.78758
4.99502	3.97296
4.99021	4.07543
4.98542	4.11847
4.98063	4.26985
4.97585	4.57898
4.97108	4.89013
4.96632	5.21468
4.96156	5.70997
4.95682	6.14727
4.95209	6.4787
4.94736	6.74832
4.94264	7.01624
4.93794	7.24139
4.93324	7.47597
4.92855	7.79914
4.92387	8.18946
4.9192	8.68959
4.91453	9.34721
4.90988	10.3491
4.90524	11.5465
4.9006	12.8966
4.89597	14.4039
4.89135	16.0675
4.88674	17.7487
4.88214	19.3983
4.87755	20.8761
4.87296	22.2569
4.86839	23.5944
4.86382	24.834
4.85926	25.9611
4.85471	26.999
4.85017	28.0133
4.84564	29.0089
4.84111	29.8681
4.8366	30.6989
4.83209	31.4765
4.82759	32.1599
4.8231	32.8516
4.81862	33.5355
4.81415	34.1592
4.80968	34.7686
4.80522	35.4541
4.80077	36.0945
4.79633	36.6851
4.7919	37.2948
4.78747	37.8502
4.78306	38.4186
4.77865	38.9204
4.77425	39.3706
4.76986	39.8386
4.76547	40.2865
4.7611	40.7099
4.75673	41.1308
4.75237	41.5089
4.74802	41.8543
4.74367	42.1612
4.73934	42.4165
4.73501	42.6388
4.73069	42.7565
4.72638	42.7295
4.72207	42.6239
4.71777	42.5256
4.71348	42.2143
4.7092	41.606
4.70493	40.8588
4.70066	39.8364
4.69641	38.6648
4.69216	37.4686
4.68791	36.5052
4.68368	36.0869
4.67945	36.1247
4.67523	36.6465
4.67102	37.5709
4.66682	38.6672
4.66262	39.826
4.65843	40.9757
4.65425	41.989
4.65007	42.9677
4.64591	43.9932
4.64175	45.0579
4.6376	46.1559
4.63345	47.2101
4.62932	48.1165
4.62519	48.8879
4.62106	49.5149
4.61695	50.0858
4.61284	50.5851
4.60874	50.9836
4.60465	51.3354
4.60056	51.6477
4.59648	51.9227
4.59241	52.0634
4.58835	52.1556
4.58429	52.2656
4.58024	52.3202
4.5762	52.2811
4.57216	52.0653
4.56814	51.8205
4.56411	51.5656
4.5601	51.1665
4.55609	50.6437
4.55209	49.8987
4.5481	48.9836
4.54411	48.0133
4.54013	46.941
4.53616	45.8156
4.5322	44.6335
4.52824	43.3718
4.52429	42.1025
4.52034	40.7649
4.51641	39.2772
4.51247	37.823
4.50855	36.396
4.50463	35.0714
4.50072	34.0233
4.49682	33.157
4.49292	32.4924
4.48903	32.021
4.48515	31.7097
4.48127	31.3926
4.4774	31.0366
4.47354	30.6548
4.46968	30.4105
4.46584	30.4384
4.46199	30.7757
4.45815	31.2422
4.45432	31.7773
4.4505	32.3965
4.44668	32.9077
4.44287	33.2985
4.43907	33.6986
4.43527	33.9827
4.43148	34.2405
4.4277	34.5986
4.42392	35.1583
4.42015	35.7673
4.41638	36.3237
4.41262	36.8347
4.40887	37.4215
4.40513	38.0567
4.40139	38.7033
4.39765	39.3998
4.39393	40.1605
4.39021	40.8819
4.38649	41.6992
4.38278	42.5658
4.37908	43.4285
4.37539	44.3038
4.3717	45.1526
4.36801	46.009
4.36434	46.8462
4.36067	47.6242
4.357	48.3143
4.35335	49.0211
4.34969	49.6592
4.34605	50.1883
4.34241	50.63
4.33877	50.9976
4.33514	51.3185
4.33152	51.6161
4.32791	51.7948
4.3243	51.8374
4.32069	51.7719
4.3171	51.7082
4.31351	51.6398
4.30992	51.533
4.30634	51.353
4.30277	51.1368
4.2992	51.0038
4.29564	50.8849
4.29208	50.8356
4.28853	50.8462
4.28499	50.9193
4.28145	51.1781
4.27792	51.5558
4.27439	51.9525
4.27087	52.3974
4.26735	52.8442
4.26384	53.283
4.26034	53.6597
4.25684	53.9453
4.25335	53.9709
4.24986	53.7955
4.24638	53.6136
4.24291	53.4642
4.23944	53.2555
4.23598	53.1038
4.23252	53.0556
4.22906	53.0905
4.22562	53.1893
4.22218	53.2808
4.21874	53.3452
4.21531	53.4078
4.21189	53.4484
4.20847	53.4736
4.20506	53.4067
4.20165	53.3897
4.19825	53.4427
4.19485	53.4989
4.19146	53.6749
4.18807	53.9625
4.18469	54.2006
4.18132	54.4727
4.17795	54.7992
4.17458	55.1735
4.17123	55.4942
4.16787	55.7618
4.16453	55.9592
4.16118	56.1511
4.15785	56.4022
4.15451	56.6704
4.15119	56.8992
4.14787	57.1193
4.14455	57.364
4.14124	57.6592
4.13794	57.8899
4.13464	58.1407
4.13134	58.4506
4.12805	58.722
4.12477	58.9691
4.12149	59.3347
4.11822	59.769
4.11495	60.1107
4.11168	60.4549
4.10843	60.9132
4.10517	61.3077
4.10192	61.6453
4.09868	61.9682
4.09545	62.2857
4.09221	62.5817
4.08899	62.9216
4.08576	63.2798
4.08255	63.5881
4.07933	63.8235
4.07613	64.0873
4.07292	64.3266
4.06973	64.4126
4.06654	64.4453
4.06335	64.5674
4.06017	64.7314
4.05699	64.778
4.05382	64.7293
4.05065	64.6826
4.04749	64.6165
4.04433	64.558
4.04118	64.5164
4.03803	64.4879
4.03489	64.4367
4.03175	64.3539
4.02862	64.2174
4.02549	64.1089
4.02237	64.0751
4.01925	64.0249
4.01614	63.957
4.01303	63.9482
4.00993	63.9706
4.00683	64.0295
4.00373	64.0783
4.00064	64.0899
3.99756	64.1579
3.99448	64.349
3.9914	64.4646
3.98833	64.5635
3.98527	64.7512
3.98221	64.9442
3.97915	65.2136
3.9761	65.4246
3.97305	65.564
3.97001	65.8291
3.96697	66.1212
3.96394	66.3358
3.96091	66.5767
3.95789	66.8826
3.95487	67.0717
3.95186	67.2578
3.94885	67.4991
3.94584	67.7624
3.94284	67.9919
3.93984	68.1865
3.93685	68.4163
3.93386	68.5922
3.93088	68.7364
3.9279	68.8483
3.92493	68.9228
3.92196	69.0353
3.919	69.0817
3.91604	69.0485
3.91308	68.9972
3.91013	68.93
3.90718	68.8025
3.90424	68.6877
3.9013	68.5801
3.89837	68.4732
3.89544	68.2789
3.89252	68.0462
3.8896	67.8382
3.88668	67.6309
3.88377	67.5066
3.88086	67.343
3.87796	67.0866
3.87506	66.9301
3.87217	66.8269
3.86928	66.6548
3.86639	66.5115
3.86351	66.3359
3.86064	66.2927
3.85776	66.4117
3.8549	66.3548
3.85203	66.2779
3.84917	66.2672
3.84631	66.2706
3.84346	66.3244
3.84062	66.3661
3.83777	66.4534
3.83494	66.6091
3.8321	66.6916
3.82927	66.7831
3.82644	66.9352
3.82362	67.0535
3.82081	67.1713
3.81799	67.3261
3.81518	67.4798
3.81238	67.5742
3.80958	67.682
3.80678	67.7934
3.80399	67.7375
3.8012	67.7021
3.79841	67.6634
3.79563	67.7285
3.79286	67.6922
3.79008	67.5586
3.78731	67.5138
3.78455	67.4284
3.78179	67.2579
3.77903	67.1397
3.77628	66.9737
3.77353	66.7741
3.77079	66.5869
3.76805	66.4277
3.76531	66.3073
3.76258	66.1324
3.75985	65.9395
3.75713	65.7878
3.7544	65.7449
3.75169	65.7036
3.74898	65.5499
3.74627	65.4871
3.74356	65.4383
3.74086	65.4176
3.73816	65.4639
3.73547	65.5497
3.73278	65.6428
3.7301	65.7451
3.72741	65.9047
3.72474	66.1002
3.72206	66.3177
3.71939	66.5402
3.71673	66.7885
3.71406	67.06
3.71141	67.3224
3.70875	67.6181
3.7061	67.9586
3.70345	68.2826
3.70081	68.6329
3.69817	68.8977
3.69553	69.2205
3.6929	69.7148
3.69027	70.0505
3.68765	70.3317
3.68503	70.7015
3.68241	71.0879
3.6798	71.438
3.67719	71.7416
3.67458	72.0411
3.67198	72.3185
3.66938	72.6016
3.66678	72.9321
3.66419	73.1545
3.66161	73.3385
3.65902	73.4999
3.65644	73.6905
3.65387	73.8463
3.65129	73.9022
3.64872	73.9824
3.64616	74.0796
3.64359	74.2165
3.64103	74.39
3.63848	74.4156
3.63593	74.3982
3.63338	74.4206
3.63084	74.4944
3.6283	74.5789
3.62576	74.5924
3.62322	74.5589
3.62069	74.5652
3.61817	74.6107
3.61564	74.6532
3.61312	74.6546
3.61061	74.6889
3.6081	74.7845
3.60559	74.8696
3.60308	74.8974
3.60058	74.9331
3.59808	75.0167
3.59558	75.1078
3.59309	75.2303
3.59061	75.3347
3.58812	75.3487
3.58564	75.4191
3.58316	75.5239
3.58069	75.6681
3.57822	75.8777
3.57575	75.9784
3.57328	76.0173
3.57082	76.1483
3.56836	76.2814
3.56591	76.4344
3.56346	76.5857
3.56101	76.7143
3.55857	76.8157
3.55613	76.8957
3.55369	77.005
3.55126	77.0953
3.54883	77.2017
3.5464	77.4473
3.54397	77.6509
3.54155	77.7287
3.53914	77.806
3.53672	77.9491
3.53431	78.1587
3.5319	78.2512
3.5295	78.2907
3.5271	78.3974
3.5247	78.4777
3.52231	78.5788
3.51991	78.6658
3.51753	78.7279
3.51514	78.6802
3.51276	78.6433
3.51038	78.5218
3.50801	78.3558
3.50563	78.3066
3.50327	78.3894
3.5009	78.4388
3.49854	78.5393
3.49618	78.6952
3.49382	78.8837
3.49147	79.049
3.48912	79.2505
3.48677	79.4557
3.48443	79.5711
3.48209	79.6166
3.47975	79.6804
3.47742	79.8034
