Name: Epsomite MgSO4 * 7H2O
Type: Mineral
Class: Sulfate
Subclass: None
Particle Size: Unsieved coarse powder
Sample No.: None
Owner: USGS
Wavelength range: 0.40 - 14.05 um
Origin: "Epsom Salts"  - commercial product

Description: Epsomite - commercial product





Measurement: Directional Hemispherical Reflectance
First Column: X
Second Column: Y
X Units: Wavelength (micrometers)
Y Units: Reflectance (percent)
First X Value: 14.05105
Last X Value: 0.40000
Number of X Values: 2756
Additional Information: None

 14.051   1.0506
 14.013   1.0506
 13.975   1.1124
 13.938   1.0609
 13.900   1.2154
 13.863   1.1948
 13.826   1.1639
 13.790   1.0609
 13.753   1.1433
 13.717   1.0609
 13.680   1.0300
 13.644   0.9785
 13.609   1.1227
 13.573   1.1845
 13.538   1.1948
 13.502   1.1433
 13.467   1.1124
 13.432   1.0197
 13.398   1.0609
 13.363   1.0712
 13.329   1.1742
 13.295   1.1021
 13.261   1.0918
 13.227   1.0403
 13.193   1.0506
 13.160   0.9373
 13.126   0.9888
 13.093   1.0403
 13.060   1.0609
 13.027   1.0403
 12.995   0.9991
 12.962   0.8755
 12.930   0.9373
 12.898   0.8961
 12.866   0.8446
 12.834   0.8034
 12.802   0.8446
 12.771   0.8652
 12.739   0.8755
 12.708   0.7004
 12.677   0.7004
 12.646   0.6901
 12.616   0.7519
 12.585   0.7210
 12.554   0.6489
 12.524   0.5974
 12.494   0.6180
 12.464   0.6283
 12.434   0.7004
 12.404   0.6077
 12.375   0.6489
 12.345   0.7210
 12.316   0.7210
 12.287   0.6283
 12.258   0.6283
 12.229   0.5768
 12.200   0.7416
 12.171   0.8137
 12.143   0.8343
 12.115   0.8343
 12.086   0.8549
 12.058   0.7313
 12.030   0.6695
 12.002   0.5768
 11.975   0.6489
 11.947   0.6901
 11.920   0.7416
 11.892   0.7313
 11.865   0.7313
 11.838   0.6901
 11.811   0.7107
 11.784   0.7107
 11.757   0.7622
 11.731   0.7622
 11.704   0.8446
 11.678   0.8446
 11.652   0.7931
 11.626   0.7107
 11.600   0.7622
 11.574   0.7725
 11.548   0.7725
 11.522   0.7931
 11.497   0.8446
 11.471   0.7622
 11.446   0.7519
 11.421   0.8446
 11.396   0.9579
 11.371   0.9270
 11.346   0.9167
 11.321   0.8549
 11.297   0.9167
 11.272   0.9270
 11.248   0.9579
 11.223   0.9682
 11.199   0.9785
 11.175   0.9476
 11.151   1.0094
 11.127   1.0815
 11.103   1.0918
 11.079   1.0815
 11.056   1.1227
 11.032   1.0712
 11.009   0.9991
 10.985   0.9991
 10.962   1.1536
 10.939   1.0918
 10.916   1.0094
 10.893   0.9991
 10.870   1.0815
 10.848   1.1227
 10.825   1.1433
 10.802   1.1124
 10.780   1.2051
 10.758   1.1433
 10.735   1.1227
 10.713   1.0918
 10.691   1.1845
 10.669   1.2154
 10.647   1.2257
 10.625   1.1948
 10.604   1.2051
 10.582   1.2360
 10.560   1.3081
 10.539   1.3287
 10.518   1.3596
 10.496   1.2566
 10.475   1.2257
 10.454   1.2257
 10.433   1.3081
 10.412   1.3596
 10.391   1.4008
 10.370   1.3699
 10.350   1.4008
 10.329   1.3699
 10.309   1.4008
 10.288   1.4420
 10.268   1.5141
 10.247   1.4832
 10.227   1.4832
 10.207   1.4935
 10.187   1.5656
 10.167   1.5244
 10.147   1.4523
 10.127   1.3081
 10.108   1.3699
 10.088   1.4832
 10.068   1.4935
 10.049   1.4626
 10.029   1.5347
 10.010   1.5862
  9.991   1.6377
  9.972   1.6171
  9.952   1.5862
  9.933   1.6377
  9.914   1.7613
  9.895   1.7304
  9.877   1.7407
  9.858   1.6892
  9.839   1.6789
  9.821   1.7613
  9.802   1.8849
  9.783   1.8643
  9.765   1.8952
  9.747   1.8849
  9.728   1.9261
  9.710   2.0600
  9.692   2.1424
  9.674   2.1115
  9.656   2.1733
  9.638   2.1527
  9.620   2.1939
  9.602   2.1321
  9.585   2.2248
  9.567   2.3072
  9.549   2.3690
  9.532   2.3896
  9.514   2.5441
  9.497   2.6780
  9.479   2.7398
  9.462   2.7707
  9.445   2.9458
  9.428   3.0385
  9.411   3.2033
  9.394   3.3887
  9.377   3.5741
  9.360   3.6771
  9.343   3.8213
  9.326   4.0376
  9.309   4.3363
  9.293   4.5320
  9.276   4.7380
  9.259   4.8616
  9.243   5.0470
  9.226   5.2633
  9.210   5.4899
  9.194   5.6341
  9.178   5.7680
  9.161   5.9946
  9.145   6.2006
  9.129   6.3860
  9.113   6.5920
  9.097   6.6847
  9.081   6.7774
  9.065   6.8289
  9.049   6.9113
  9.034   6.9113
  9.018   7.0143
  9.002   7.1173
  8.987   7.1379
  8.971   6.9731
  8.956   6.8907
  8.940   6.8598
  8.925   6.7568
  8.909   6.4993
  8.894   6.3242
  8.879   6.1491
  8.864   5.9019
  8.849   5.5517
  8.834   5.3457
  8.819   5.1603
  8.804   4.9440
  8.789   4.6041
  8.774   4.3878
  8.759   4.1303
  8.744   3.9243
  8.730   3.7698
  8.715   3.5123
  8.700   3.2445
  8.686   3.0385
  8.671   2.8634
  8.657   2.7913
  8.642   2.5544
  8.628   2.3484
  8.614   2.1630
  8.599   1.9467
  8.585   1.6995
  8.571   1.4420
  8.557   1.2875
  8.543   1.1845
  8.529   1.0300
  8.515   0.9167
  8.501   0.7622
  8.487   0.6798
  8.473   0.5768
  8.459   0.5665
  8.445   0.5459
  8.431   0.4841
  8.418   0.4429
  8.404   0.3914
  8.391   0.3502
  8.377   0.3399
  8.363   0.3605
  8.350   0.3811
  8.337   0.3193
  8.323   0.3708
  8.310   0.4017
  8.297   0.3605
  8.283   0.2987
  8.270   0.3399
  8.257   0.3605
  8.244   0.3605
  8.231   0.3605
  8.218   0.3605
  8.205   0.3399
  8.192   0.3914
  8.179   0.4017
  8.166   0.4017
  8.153   0.3296
  8.140   0.3296
  8.128   0.4017
  8.115   0.4017
  8.102   0.3708
  8.090   0.4326
  8.077   0.4223
  8.064   0.4326
  8.052   0.3811
  8.039   0.3605
  8.027   0.4120
  8.015   0.4635
  8.002   0.4738
  7.990   0.4635
  7.978   0.4532
  7.965   0.4738
  7.953   0.4532
  7.941   0.4429
  7.929   0.4429
  7.917   0.4635
  7.905   0.4841
  7.893   0.4738
  7.881   0.4326
  7.869   0.5253
  7.857   0.5459
  7.845   0.5047
  7.833   0.4944
  7.821   0.5150
  7.809   0.5459
  7.798   0.5768
  7.786   0.4738
  7.774   0.4944
  7.763   0.5665
  7.751   0.5871
  7.739   0.5356
  7.728   0.5665
  7.716   0.5768
  7.705   0.5974
  7.694   0.5974
  7.682   0.5974
  7.671   0.5974
  7.659   0.6386
  7.648   0.5665
  7.637   0.5665
  7.626   0.5871
  7.614   0.6077
  7.603   0.6180
  7.592   0.6489
  7.581   0.6386
  7.570   0.6386
  7.559   0.6180
  7.548   0.6489
  7.537   0.6180
  7.526   0.5974
  7.515   0.6077
  7.504   0.6798
  7.493   0.6901
  7.483   0.7107
  7.472   0.7210
  7.461   0.6901
  7.450   0.6283
  7.440   0.6386
  7.429   0.5871
  7.418   0.6386
  7.408   0.7107
  7.397   0.7313
  7.387   0.7519
  7.376   0.7313
  7.366   0.7004
  7.355   0.7519
  7.345   0.7210
  7.334   0.7210
  7.324   0.7519
  7.314   0.7725
  7.303   0.7725
  7.293   0.8137
  7.283   0.7931
  7.273   0.7931
  7.263   0.7725
  7.252   0.7622
  7.242   0.7931
  7.232   0.8446
  7.222   0.8446
  7.212   0.8652
  7.202   0.8343
  7.192   0.8343
  7.182   0.8343
  7.172   0.8137
  7.162   0.8240
  7.152   0.9064
  7.143   0.9682
  7.133   0.9270
  7.123   0.8343
  7.113   0.8652
  7.103   0.9064
  7.094   0.9167
  7.084   0.9270
  7.074   0.9579
  7.065   0.8858
  7.055   0.8034
  7.046   0.8137
  7.036   0.8755
  7.026   0.8755
  7.017   0.8858
  7.007   0.8961
  6.998   0.9064
  6.989   0.8446
  6.979   0.8961
  6.970   0.9476
  6.960   0.9476
  6.951   0.9476
  6.942   0.9476
  6.932   0.8961
  6.923   0.9682
  6.914   0.9785
  6.905   1.0094
  6.896   0.9373
  6.886   0.8858
  6.877   0.9064
  6.868   0.9785
  6.859   0.9991
  6.850   1.0300
  6.841   0.9476
  6.832   0.9167
  6.823   0.9373
  6.814   0.9682
  6.805   0.9785
  6.796   0.9682
  6.787   0.9476
  6.778   0.9682
  6.770   0.9476
  6.761   0.9579
  6.752   0.9888
  6.743   1.0403
  6.734   1.0197
  6.726   0.9888
  6.717   0.9682
  6.708   0.9579
  6.700   0.9682
  6.691   0.9991
  6.682   1.0197
  6.674   1.0609
  6.665   1.0506
  6.657   1.0609
  6.648   1.0609
  6.640   1.0918
  6.631   1.1124
  6.623   1.0506
  6.614   0.9785
  6.606   0.9579
  6.597   0.9579
  6.589   1.0506
  6.581   1.0815
  6.572   1.0403
  6.564   1.0403
  6.556   1.0300
  6.547   0.9888
  6.539   1.0609
  6.531   1.0815
  6.523   1.0403
  6.514   0.9888
  6.506   0.9991
  6.498   1.0609
  6.490   1.0300
  6.482   0.9682
  6.474   0.9682
  6.466   1.0094
  6.458   1.0609
  6.450   1.0094
  6.442   0.9476
  6.434   0.9476
  6.426   0.9682
  6.418   0.9785
  6.410   1.0197
  6.402   1.0197
  6.394   1.0300
  6.386   1.0506
  6.378   1.0506
  6.370   0.9682
  6.363   0.9373
  6.355   0.9991
  6.347   1.0300
  6.339   1.0609
  6.332   1.0609
  6.324   0.9888
  6.316   0.9579
  6.308   0.9476
  6.301   0.9785
  6.293   0.9476
  6.286   0.9373
  6.278   0.9991
  6.270   1.0300
  6.263   1.0197
  6.255   1.0300
  6.248   0.9991
  6.240   0.9785
  6.233   0.9579
  6.225   0.9579
  6.218   0.9785
  6.210   1.0609
  6.203   1.0403
  6.195   0.9682
  6.188   0.9991
  6.181   1.0506
  6.173   1.0403
  6.166   0.9991
  6.159   0.9682
  6.151   0.9991
  6.144   1.0197
  6.137   1.0712
  6.130   1.0609
  6.122   1.0506
  6.115   1.0609
  6.108   1.0712
  6.101   0.9785
  6.094   0.9476
  6.086   0.9682
  6.079   0.9373
  6.072   0.9064
  6.065   0.8858
  6.058   0.8961
  6.051   0.9270
  6.044   0.9270
  6.037   0.9270
  6.030   0.8755
  6.023   0.8446
  6.016   0.7931
  6.009   0.7004
  6.002   0.6695
  5.995   0.7313
  5.988   0.7107
  5.981   0.6283
  5.974   0.6283
  5.967   0.6592
  5.960   0.6180
  5.954   0.6077
  5.947   0.5871
  5.940   0.5768
  5.933   0.5871
  5.926   0.6283
  5.920   0.6386
  5.913   0.5974
  5.906   0.6180
  5.899   0.6901
  5.893   0.7313
  5.886   0.7107
  5.879   0.7004
  5.873   0.7416
  5.866   0.7107
  5.859   0.7107
  5.853   0.7210
  5.846   0.7210
  5.840   0.7519
  5.833   0.8137
  5.827   0.8137
  5.820   0.7931
  5.813   0.7828
  5.807   0.7416
  5.800   0.8137
  5.794   0.8652
  5.788   0.8343
  5.781   0.8652
  5.775   0.8755
  5.768   0.8858
  5.762   0.9373
  5.755   0.9476
  5.749   0.9270
  5.743   0.9270
  5.736   0.9991
  5.730   1.0609
  5.724   1.0094
  5.717   1.0506
  5.711   1.0815
  5.705   1.1330
  5.698   1.1124
  5.692   1.1330
  5.686   1.1433
  5.680   1.1948
  5.674   1.2566
  5.667   1.2875
  5.661   1.2875
  5.655   1.3287
  5.649   1.3699
  5.643   1.4008
  5.637   1.4214
  5.630   1.4523
  5.624   1.4729
  5.618   1.4317
  5.612   1.4214
  5.606   1.4832
  5.600   1.5450
  5.594   1.5759
  5.588   1.5862
  5.582   1.5965
  5.576   1.5759
  5.570   1.5965
  5.564   1.6274
  5.558   1.6789
  5.552   1.7201
  5.546   1.7510
  5.540   1.7716
  5.534   1.8231
  5.528   1.8231
  5.523   1.7922
  5.517   1.7922
  5.511   1.8334
  5.505   1.8952
  5.499   1.9261
  5.493   1.9467
  5.487   1.9467
  5.482   1.9055
  5.476   1.9570
  5.470   1.9673
  5.464   1.9879
  5.459   2.0291
  5.453   2.0600
  5.447   2.0497
  5.441   2.0600
  5.436   2.0703
  5.430   2.1012
  5.424   2.1115
  5.419   2.1115
  5.413   2.1321
  5.407   2.1424
  5.402   2.1218
  5.396   2.1630
  5.390   2.1836
  5.385   2.1321
  5.379   2.1527
  5.374   2.2042
  5.368   2.1630
  5.363   2.1630
  5.357   2.1733
  5.352   2.1733
  5.346   2.2145
  5.341   2.2351
  5.335   2.2145
  5.330   2.2248
  5.324   2.2557
  5.319   2.2763
  5.313   2.2248
  5.308   2.2557
  5.302   2.3175
  5.297   2.3278
  5.291   2.3175
  5.286   2.3587
  5.281   2.3484
  5.275   2.3278
  5.270   2.3175
  5.265   2.3278
  5.259   2.3793
  5.254   2.3690
  5.249   2.3587
  5.243   2.3381
  5.238   2.3587
  5.233   2.3278
  5.227   2.3175
  5.222   2.3484
  5.217   2.3690
  5.212   2.3999
  5.206   2.3999
  5.201   2.4205
  5.196   2.4308
  5.191   2.4411
  5.186   2.4205
  5.180   2.3896
  5.175   2.4102
  5.170   2.4617
  5.165   2.4411
  5.160   2.4308
  5.155   2.4102
  5.150   2.4102
  5.145   2.4308
  5.139   2.4411
  5.134   2.4205
  5.129   2.3793
  5.124   2.3896
  5.119   2.3896
  5.114   2.3793
  5.109   2.4308
  5.104   2.4411
  5.099   2.4617
  5.094   2.4514
  5.089   2.4102
  5.084   2.3999
  5.079   2.4205
  5.074   2.4514
  5.069   2.4514
  5.064   2.4411
  5.059   2.3999
  5.054   2.3793
  5.049   2.3999
  5.044   2.4102
  5.040   2.4308
  5.035   2.4514
  5.030   2.4308
  5.025   2.4205
  5.020   2.3484
  5.015   2.3175
  5.010   2.3587
  5.005   2.3896
  5.001   2.3175
  4.996   2.2866
  4.991   2.3278
  4.986   2.3381
  4.981   2.2969
  4.977   2.2351
  4.972   2.2145
  4.967   2.2145
  4.962   2.2351
  4.958   2.2557
  4.953   2.2351
  4.948   2.2145
  4.943   2.2351
  4.939   2.1939
  4.934   2.1630
  4.929   2.1424
  4.925   2.1115
  4.920   2.1012
  4.915   2.0703
  4.911   2.0188
  4.906   2.0085
  4.901   2.0291
  4.897   1.9776
  4.892   1.9158
  4.888   1.8952
  4.883   1.8334
  4.878   1.8025
  4.874   1.7716
  4.869   1.7922
  4.865   1.8025
  4.860   1.7819
  4.856   1.7613
  4.851   1.7304
  4.846   1.6995
  4.842   1.6892
  4.837   1.6583
  4.833   1.6583
  4.828   1.6583
  4.824   1.6995
  4.819   1.7098
  4.815   1.6892
  4.810   1.7098
  4.806   1.7304
  4.802   1.7201
  4.797   1.6892
  4.793   1.6274
  4.788   1.5656
  4.784   1.5656
  4.779   1.5965
  4.775   1.5759
  4.771   1.5965
  4.766   1.6583
  4.762   1.7201
  4.758   1.7098
  4.753   1.6377
  4.749   1.6068
  4.744   1.6171
  4.740   1.6171
  4.736   1.5862
  4.731   1.5759
  4.727   1.5759
  4.723   1.5656
  4.719   1.5862
  4.714   1.6377
  4.710   1.6068
  4.706   1.5965
  4.701   1.6274
  4.697   1.6583
  4.693   1.6480
  4.689   1.5759
  4.684   1.5656
  4.680   1.6274
  4.676   1.6995
  4.672   1.7304
  4.668   1.6686
  4.663   1.6274
  4.659   1.6377
  4.655   1.6686
  4.651   1.6789
  4.647   1.7098
  4.643   1.6892
  4.638   1.6480
  4.634   1.5862
  4.630   1.5862
  4.626   1.6377
  4.622   1.6274
  4.618   1.5553
  4.614   1.5141
  4.610   1.5759
  4.605   1.6480
  4.601   1.6274
  4.597   1.5450
  4.593   1.5038
  4.589   1.5038
  4.585   1.5038
  4.581   1.4935
  4.577   1.4935
  4.573   1.5141
  4.569   1.4935
  4.565   1.4935
  4.561   1.5553
  4.557   1.5862
  4.553   1.5244
  4.549   1.4832
  4.545   1.5553
  4.541   1.5656
  4.537   1.4935
  4.533   1.4626
  4.529   1.4832
  4.525   1.4729
  4.521   1.4420
  4.517   1.4832
  4.513   1.4729
  4.509   1.4111
  4.505   1.4317
  4.502   1.4626
  4.498   1.4214
  4.494   1.3802
  4.490   1.3905
  4.486   1.3802
  4.482   1.4214
  4.478   1.4214
  4.474   1.4008
  4.470   1.3905
  4.467   1.3493
  4.463   1.3699
  4.459   1.3287
  4.455   1.3081
  4.451   1.3184
  4.447   1.3287
  4.444   1.3699
  4.440   1.4214
  4.436   1.3390
  4.432   1.2772
  4.428   1.3184
  4.425   1.3287
  4.421   1.3184
  4.417   1.3493
  4.413   1.3699
  4.410   1.3493
  4.406   1.3184
  4.402   1.3287
  4.398   1.3287
  4.395   1.3184
  4.391   1.2875
  4.387   1.2875
  4.384   1.2978
  4.380   1.3184
  4.376   1.2772
  4.372   1.2978
  4.369   1.3596
  4.365   1.3699
  4.361   1.3596
  4.358   1.2978
  4.354   1.2772
  4.350   1.2978
  4.347   1.3184
  4.343   1.3699
  4.340   1.2875
  4.336   1.2051
  4.332   1.2978
  4.329   1.3184
  4.325   1.2669
  4.321   1.2772
  4.318   1.3287
  4.314   1.3699
  4.311   1.3287
  4.307   1.2978
  4.304   1.3184
  4.300   1.3596
  4.296   1.3493
  4.293   1.2772
  4.289   1.2875
  4.286   1.4523
  4.282   1.4626
  4.279   1.3905
  4.275   1.3081
  4.272   1.2463
  4.268   1.3081
  4.265   1.4111
  4.261   1.4214
  4.258   1.4008
  4.254   1.3905
  4.251   1.4008
  4.247   1.3905
  4.244   1.4420
  4.240   1.4729
  4.237   1.4523
  4.233   1.3699
  4.230   1.3390
  4.226   1.3802
  4.223   1.4626
  4.219   1.4523
  4.216   1.4111
  4.213   1.3802
  4.209   1.3905
  4.206   1.3699
  4.202   1.3493
  4.199   1.3905
  4.196   1.3699
  4.192   1.3493
  4.189   1.3905
  4.185   1.3596
  4.182   1.3905
  4.179   1.4935
  4.175   1.4832
  4.172   1.4832
  4.169   1.5038
  4.165   1.4935
  4.162   1.4935
  4.159   1.4729
  4.155   1.4317
  4.152   1.4214
  4.149   1.4935
  4.145   1.5038
  4.142   1.5141
  4.139   1.5141
  4.135   1.5141
  4.132   1.5038
  4.129   1.5141
  4.126   1.5244
  4.122   1.4935
  4.119   1.4935
  4.116   1.5553
  4.112   1.5450
  4.109   1.5450
  4.106   1.5553
  4.103   1.5759
  4.099   1.5347
  4.096   1.5656
  4.093   1.6171
  4.090   1.6686
  4.086   1.7201
  4.083   1.6892
  4.080   1.6171
  4.077   1.7510
  4.074   1.8231
  4.070   1.7304
  4.067   1.6789
  4.064   1.6892
  4.061   1.6995
  4.058   1.7510
  4.055   1.8231
  4.051   1.8334
  4.048   1.8334
  4.045   1.8643
  4.042   1.9055
  4.039   1.9364
  4.036   1.9570
  4.032   1.9467
  4.029   1.9570
  4.026   1.9673
  4.023   2.0188
  4.020   2.1218
  4.017   2.1115
  4.014   2.1218
  4.011   2.1630
  4.008   2.2248
  4.004   2.2351
  4.001   2.2660
  3.998   2.3690
  3.995   2.4102
  3.992   2.3999
  3.989   2.3793
  3.986   2.3587
  3.983   2.4308
  3.980   2.4514
  3.977   2.3999
  3.974   2.4514
  3.971   2.5544
  3.968   2.5956
  3.965   2.6471
  3.962   2.7604
  3.959   2.8325
  3.956   2.7913
  3.953   2.7810
  3.950   2.8222
  3.947   2.8325
  3.944   2.8840
  3.941   2.9458
  3.938   2.9664
  3.935   3.0282
  3.932   3.0797
  3.929   3.1415
  3.926   3.0797
  3.923   3.0694
  3.920   3.1209
  3.917   3.2342
  3.914   3.2548
  3.911   3.2651
  3.908   3.3166
  3.905   3.3990
  3.902   3.3990
  3.899   3.3990
  3.896   3.4917
  3.893   3.4711
  3.890   3.4299
  3.887   3.5741
  3.884   3.6256
  3.882   3.6050
  3.879   3.6050
  3.876   3.5844
  3.873   3.6256
  3.870   3.7389
  3.867   3.7801
  3.864   3.7801
  3.861   3.8007
  3.858   3.8419
  3.856   3.8007
  3.853   3.7801
  3.850   3.8522
  3.847   3.9861
  3.844   3.9758
  3.841   3.9449
  3.838   3.9346
  3.836   3.9243
  3.833   3.9552
  3.830   4.0273
  3.827   4.0170
  3.824   3.9655
  3.822   4.0067
  3.819   4.1303
  3.816   4.1200
  3.813   4.1200
  3.810   4.1509
  3.807   4.1200
  3.805   4.0891
  3.802   4.0788
  3.799   4.1612
  3.796   4.1715
  3.794   4.1200
  3.791   4.1303
  3.788   4.1303
  3.785   4.2127
  3.782   4.1921
  3.780   4.1509
  3.777   4.1509
  3.774   4.2127
  3.771   4.2333
  3.769   4.1612
  3.766   4.1303
  3.763   4.1818
  3.761   4.1509
  3.758   4.1715
  3.755   4.1612
  3.752   4.1200
  3.750   4.1303
  3.747   4.2024
  3.744   4.1715
  3.742   4.1200
  3.739   4.1303
  3.736   4.1818
  3.733   4.1406
  3.731   4.1097
  3.728   4.1612
  3.725   4.2024
  3.723   4.0891
  3.720   4.0067
  3.717   3.9346
  3.715   3.8934
  3.712   3.9346
  3.709   4.0376
  3.707   4.0685
  3.704   4.1097
  3.702   4.0994
  3.699   4.0479
  3.696   3.9758
  3.694   3.9552
  3.691   4.0170
  3.688   4.1097
  3.686   4.0376
  3.683   3.9449
  3.680   3.8934
  3.678   3.8831
  3.675   3.8625
  3.673   3.8419
  3.670   3.9037
  3.667   3.8522
  3.665   3.7595
  3.662   3.7389
  3.660   3.6668
  3.657   3.6874
  3.655   3.6874
  3.652   3.6977
  3.649   3.6668
  3.647   3.6359
  3.644   3.5741
  3.642   3.5432
  3.639   3.5741
  3.637   3.5947
  3.634   3.5535
  3.632   3.5123
  3.629   3.4505
  3.626   3.3887
  3.624   3.3681
  3.621   3.3578
  3.619   3.4196
  3.616   3.4299
  3.614   3.3784
  3.611   3.2857
  3.609   3.2651
  3.606   3.3578
  3.604   3.3166
  3.601   3.2342
  3.599   3.1518
  3.596   3.1518
  3.594   3.1518
  3.591   3.1003
  3.589   3.1518
  3.586   3.2548
  3.584   3.1930
  3.581   3.1312
  3.579   3.0282
