Name: Altered volcanic tuff
Type: Rock
Class: Igneous
Subclass: Felsic
Particle Size: Whole rock chips
Sample No.: Cup4
Owner: USGS
Wavelength range: 0.40 - 14.05 um
Origin: Cuprite, Nevada

Description: Altered volcanic tuff, white to very lt grey





Measurement: Directional Hemispherical Reflectance
First Column: X
Second Column: Y
X Units: Wavelength (micrometers)
Y Units: Reflectance (percent)
First X Value: 14.05105
Last X Value: 0.40000
Number of X Values: 2756
Additional Information: None

 14.051   4.8925
 14.013   4.5938
 13.975   4.4702
 13.938   4.3260
 13.900   4.1715
 13.863   4.0067
 13.826   3.9140
 13.790   3.7183
 13.753   3.6256
 13.717   3.4711
 13.680   3.5020
 13.644   3.3784
 13.609   3.2960
 13.573   3.2342
 13.538   3.3269
 13.502   3.1827
 13.467   3.1312
 13.432   3.0900
 13.398   3.0797
 13.363   3.0076
 13.329   3.0076
 13.295   2.9973
 13.261   3.0591
 13.227   2.9767
 13.193   3.0385
 13.160   3.0694
 13.126   3.2033
 13.093   3.2651
 13.060   3.2548
 13.027   3.2033
 12.995   3.3372
 12.962   3.3887
 12.930   3.4196
 12.898   3.4505
 12.866   3.5638
 12.834   3.5123
 12.802   3.5123
 12.771   3.5535
 12.739   3.5844
 12.708   3.5741
 12.677   3.6359
 12.646   3.4814
 12.616   3.3681
 12.585   3.2960
 12.554   3.2754
 12.524   3.2033
 12.494   3.1621
 12.464   3.1003
 12.434   3.0694
 12.404   2.9355
 12.375   2.9355
 12.345   2.8737
 12.316   2.7707
 12.287   2.7295
 12.258   2.7501
 12.229   2.6780
 12.200   2.7398
 12.171   2.6780
 12.143   2.7501
 12.115   2.7604
 12.086   2.7913
 12.058   2.7913
 12.030   2.8119
 12.002   2.7192
 11.975   2.8016
 11.947   2.8428
 11.920   2.9252
 11.892   2.9664
 11.865   2.9561
 11.838   2.9561
 11.811   3.0282
 11.784   3.0694
 11.757   3.2033
 11.731   3.2548
 11.704   3.3372
 11.678   3.2857
 11.652   3.3578
 11.626   3.3372
 11.600   3.3990
 11.574   3.5432
 11.548   3.6359
 11.522   3.6050
 11.497   3.6462
 11.471   3.6771
 11.446   3.7801
 11.421   3.7698
 11.396   3.8625
 11.371   3.9655
 11.346   4.0685
 11.321   4.0067
 11.297   4.0376
 11.272   4.1200
 11.248   4.1200
 11.223   4.0376
 11.199   4.1303
 11.175   4.1509
 11.151   4.1612
 11.127   4.1818
 11.103   4.2951
 11.079   4.2642
 11.056   4.3569
 11.032   4.3775
 11.009   4.5217
 10.985   4.6144
 10.962   4.6247
 10.939   4.5526
 10.916   4.6041
 10.893   4.6350
 10.870   4.6453
 10.848   4.5835
 10.825   4.5320
 10.802   4.6144
 10.780   4.7277
 10.758   4.7380
 10.735   4.7998
 10.713   4.7792
 10.691   4.8307
 10.669   4.8822
 10.647   4.9028
 10.625   4.8513
 10.604   4.9337
 10.582   4.9955
 10.560   5.0573
 10.539   5.0779
 10.518   5.1397
 10.496   5.1912
 10.475   5.3251
 10.454   5.2839
 10.433   5.3354
 10.412   5.4487
 10.391   5.5208
 10.370   5.4796
 10.350   5.5105
 10.329   5.5311
 10.309   5.6650
 10.288   5.7268
 10.268   5.8092
 10.247   5.8607
 10.227   5.9946
 10.207   6.1285
 10.187   6.2830
 10.167   6.3860
 10.147   6.4890
 10.127   6.5611
 10.108   6.7465
 10.088   6.7980
 10.068   6.8804
 10.049   7.0143
 10.029   7.1585
 10.010   7.2409
  9.991   7.4057
  9.972   7.5808
  9.952   7.7765
  9.933   7.9207
  9.914   8.1370
  9.895   8.3018
  9.877   8.5181
  9.858   8.6417
  9.839   8.8683
  9.821   9.0743
  9.802   9.2391
  9.783   9.4451
  9.765   9.7438
  9.747  10.1043
  9.728  10.4545
  9.710  10.5987
  9.692  10.5678
  9.674  10.4751
  9.656  10.6296
  9.638  10.8562
  9.620  11.0416
  9.602  11.2064
  9.585  11.5257
  9.567  11.7420
  9.549  11.9995
  9.532  12.2055
  9.514  12.4630
  9.497  12.7102
  9.479  12.8956
  9.462  13.0295
  9.445  13.4106
  9.428  13.7299
  9.411  14.0389
  9.394  14.3376
  9.377  14.6672
  9.360  15.0380
  9.343  15.5633
  9.326  16.0474
  9.309  16.5727
  9.293  17.0671
  9.276  17.5203
  9.259  17.9323
  9.243  18.4473
  9.226  18.8387
  9.210  19.2301
  9.194  19.6318
  9.178  20.1262
  9.161  20.5588
  9.145  21.0017
  9.129  21.4755
  9.113  22.0523
  9.097  22.4643
  9.081  22.8248
  9.065  23.2677
  9.049  23.8136
  9.034  24.2668
  9.018  24.6685
  9.002  24.8848
  8.987  25.1629
  8.971  25.3483
  8.956  25.3689
  8.940  25.2453
  8.925  25.1526
  8.909  24.9672
  8.894  24.7921
  8.879  24.5037
  8.864  24.0505
  8.849  23.7003
  8.834  23.4840
  8.819  23.0617
  8.804  22.7115
  8.789  22.2995
  8.774  21.8463
  8.759  21.3107
  8.744  20.8266
  8.730  20.3734
  8.715  19.9202
  8.700  19.2610
  8.686  18.7048
  8.671  18.2001
  8.657  17.5718
  8.642  17.0671
  8.628  16.7375
  8.614  16.5109
  8.599  16.5933
  8.585  16.7684
  8.571  16.7993
  8.557  16.6242
  8.543  16.3255
  8.529  15.8723
  8.515  15.3882
  8.501  14.8835
  8.487  14.4509
  8.473  14.0286
  8.459  13.7402
  8.445  13.4930
  8.431  13.2355
  8.418  12.9471
  8.404  12.6999
  8.391  12.4630
  8.377  12.2261
  8.363  11.9686
  8.350  11.8244
  8.337  11.7214
  8.323  11.5772
  8.310  11.4227
  8.297  11.2888
  8.283  11.1961
  8.270  11.1858
  8.257  11.0828
  8.244  11.0107
  8.231  10.9695
  8.218  10.9077
  8.205  10.8768
  8.192  10.9489
  8.179  10.9180
  8.166  10.8665
  8.153  10.7635
  8.140  10.7738
  8.128  10.7944
  8.115  10.8459
  8.102  10.7944
  8.090  10.8047
  8.077  10.8974
  8.064  10.9798
  8.052  10.9592
  8.039  11.0519
  8.027  11.0519
  8.015  11.0828
  8.002  11.1549
  7.990  11.1549
  7.978  11.0519
  7.965  10.9798
  7.953  10.9180
  7.941  10.7635
  7.929  10.4545
  7.917  10.0837
  7.905   9.6305
  7.893   9.2082
  7.881   8.7344
  7.869   8.2709
  7.857   7.7662
  7.845   7.1791
  7.833   6.6229
  7.821   6.1697
  7.809   5.6650
  7.798   5.1706
  7.786   4.7380
  7.774   4.4496
  7.763   4.1406
  7.751   3.8419
  7.739   3.5020
  7.728   3.2548
  7.716   3.0282
  7.705   2.8222
  7.694   2.6471
  7.682   2.5235
  7.671   2.3175
  7.659   2.1527
  7.648   2.0188
  7.637   1.9364
  7.626   1.8437
  7.614   1.7613
  7.603   1.6995
  7.592   1.6892
  7.581   1.5553
  7.570   1.4523
  7.559   1.4008
  7.548   1.3802
  7.537   1.3081
  7.526   1.2463
  7.515   1.2154
  7.504   1.1948
  7.493   1.1433
  7.483   1.1639
  7.472   1.1639
  7.461   1.1433
  7.450   1.1124
  7.440   1.1124
  7.429   1.0712
  7.418   1.0918
  7.408   1.0197
  7.397   1.0609
  7.387   1.0712
  7.376   1.0197
  7.366   0.9579
  7.355   0.9785
  7.345   1.0506
  7.334   1.0918
  7.324   1.0300
  7.314   1.0300
  7.303   1.0197
  7.293   1.0300
  7.283   1.0506
  7.273   1.0815
  7.263   1.0403
  7.252   0.9991
  7.242   1.0197
  7.232   1.0712
  7.222   1.0403
  7.212   1.0094
  7.202   0.9682
  7.192   0.9991
  7.182   1.0197
  7.172   1.0300
  7.162   1.0403
  7.152   1.0506
  7.143   1.0197
  7.133   1.0506
  7.123   1.0815
  7.113   1.0197
  7.103   0.9270
  7.094   0.9888
  7.084   1.0712
  7.074   1.1433
  7.065   1.0815
  7.055   1.0300
  7.046   1.0403
  7.036   1.1124
  7.026   1.0712
  7.017   1.0609
  7.007   1.0300
  6.998   1.0300
  6.989   1.0712
  6.979   1.1330
  6.970   1.0712
  6.960   1.1124
  6.951   1.1330
  6.942   1.0918
  6.932   1.0918
  6.923   1.1330
  6.914   1.1433
  6.905   1.1845
  6.896   1.1948
  6.886   1.1742
  6.877   1.1742
  6.868   1.2154
  6.859   1.2360
  6.850   1.2257
  6.841   1.2257
  6.832   1.2051
  6.823   1.1433
  6.814   1.1845
  6.805   1.2257
  6.796   1.2772
  6.787   1.3081
  6.778   1.2669
  6.770   1.2463
  6.761   1.2566
  6.752   1.2566
  6.743   1.3493
  6.734   1.3493
  6.726   1.4111
  6.717   1.4008
  6.708   1.4317
  6.700   1.4523
  6.691   1.4317
  6.682   1.4420
  6.674   1.5141
  6.665   1.4935
  6.657   1.5038
  6.648   1.5141
  6.640   1.5862
  6.631   1.6480
  6.623   1.6171
  6.614   1.5244
  6.606   1.5656
  6.597   1.6068
  6.589   1.6686
  6.581   1.6789
  6.572   1.6686
  6.564   1.6789
  6.556   1.6892
  6.547   1.6480
  6.539   1.6377
  6.531   1.6686
  6.523   1.7201
  6.514   1.7613
  6.506   1.8128
  6.498   1.7716
  6.490   1.7201
  6.482   1.7407
  6.474   1.8025
  6.466   1.7819
  6.458   1.7819
  6.450   1.8128
  6.442   1.8231
  6.434   1.7613
  6.426   1.8334
  6.418   1.9158
  6.410   1.9158
  6.402   1.8025
  6.394   1.8128
  6.386   1.8437
  6.378   1.8334
  6.370   1.8128
  6.363   1.7922
  6.355   1.7819
  6.347   1.8128
  6.339   1.7716
  6.332   1.7613
  6.324   1.7716
  6.316   1.7407
  6.308   1.7407
  6.301   1.7304
  6.293   1.7407
  6.286   1.7922
  6.278   1.8334
  6.270   1.8231
  6.263   1.8128
  6.255   1.8231
  6.248   1.7407
  6.240   1.7201
  6.233   1.7098
  6.225   1.6789
  6.218   1.6377
  6.210   1.6068
  6.203   1.6068
  6.195   1.6583
  6.188   1.6377
  6.181   1.6377
  6.173   1.7098
  6.166   1.6789
  6.159   1.6583
  6.151   1.7304
  6.144   1.6789
  6.137   1.6171
  6.130   1.6068
  6.122   1.6480
  6.115   1.6171
  6.108   1.6480
  6.101   1.6377
  6.094   1.5862
  6.086   1.5656
  6.079   1.5759
  6.072   1.6068
  6.065   1.6583
  6.058   1.6274
  6.051   1.6068
  6.044   1.6789
  6.037   1.7407
  6.030   1.7304
  6.023   1.6789
  6.016   1.6686
  6.009   1.6789
  6.002   1.6789
  5.995   1.7098
  5.988   1.7304
  5.981   1.7098
  5.974   1.6789
  5.967   1.7407
  5.960   1.8128
  5.954   1.8849
  5.947   1.8643
  5.940   1.8540
  5.933   1.9055
  5.926   1.9364
  5.920   1.9261
  5.913   1.9158
  5.906   1.8952
  5.899   1.9776
  5.893   2.0909
  5.886   2.0188
  5.879   1.9776
  5.873   2.0497
  5.866   2.0703
  5.859   2.1012
  5.853   2.0600
  5.846   2.1012
  5.840   2.1939
  5.833   2.2557
  5.827   2.2763
  5.820   2.2866
  5.813   2.2248
  5.807   2.2145
  5.800   2.2454
  5.794   2.2866
  5.788   2.2660
  5.781   2.2454
  5.775   2.2042
  5.768   2.2557
  5.762   2.3381
  5.755   2.3175
  5.749   2.3072
  5.743   2.3175
  5.736   2.2660
  5.730   2.3381
  5.724   2.4102
  5.717   2.4308
  5.711   2.4205
  5.705   2.4926
  5.698   2.5338
  5.692   2.5029
  5.686   2.5132
  5.680   2.5544
  5.674   2.5750
  5.667   2.5750
  5.661   2.5750
  5.655   2.5956
  5.649   2.6059
  5.643   2.6162
  5.637   2.6162
  5.630   2.6368
  5.624   2.6265
  5.618   2.6368
  5.612   2.6677
  5.606   2.6986
  5.600   2.6986
  5.594   2.6986
  5.588   2.6677
  5.582   2.6471
  5.576   2.6368
  5.570   2.6574
  5.564   2.6574
  5.558   2.6677
  5.552   2.6368
  5.546   2.6471
  5.540   2.6883
  5.534   2.7192
  5.528   2.7398
  5.523   2.7089
  5.517   2.6986
  5.511   2.7295
  5.505   2.7398
  5.499   2.7501
  5.493   2.7604
  5.487   2.7398
  5.482   2.7089
  5.476   2.7501
  5.470   2.8222
  5.464   2.8119
  5.459   2.7707
  5.453   2.6883
  5.447   2.7192
  5.441   2.7707
  5.436   2.7501
  5.430   2.6986
  5.424   2.7089
  5.419   2.7810
  5.413   2.7501
  5.407   2.6883
  5.402   2.6986
  5.396   2.7501
  5.390   2.7295
  5.385   2.6677
  5.379   2.6471
  5.374   2.6265
  5.368   2.5956
  5.363   2.6059
  5.357   2.6265
  5.352   2.6059
  5.346   2.5544
  5.341   2.5441
  5.335   2.5441
  5.330   2.5750
  5.324   2.5853
  5.319   2.5647
  5.313   2.5647
  5.308   2.6883
  5.302   2.7089
  5.297   2.6677
  5.291   2.6780
  5.286   2.6265
  5.281   2.6368
  5.275   2.6677
  5.270   2.7295
  5.265   2.7913
  5.259   2.8222
  5.254   2.8119
  5.249   2.8428
  5.243   2.8531
  5.238   2.8531
  5.233   2.8840
  5.227   2.9458
  5.222   2.9973
  5.217   3.0076
  5.212   3.0282
  5.206   3.0694
  5.201   3.1209
  5.196   3.1621
  5.191   3.1518
  5.186   3.1621
  5.180   3.2239
  5.175   3.2960
  5.170   3.3166
  5.165   3.2960
  5.160   3.2754
  5.155   3.3269
  5.150   3.3166
  5.145   3.3269
  5.139   3.3681
  5.134   3.3784
  5.129   3.3269
  5.124   3.3269
  5.119   3.3578
  5.114   3.3990
  5.109   3.3681
  5.104   3.3475
  5.099   3.3990
  5.094   3.4196
  5.089   3.3681
  5.084   3.3372
  5.079   3.3475
  5.074   3.3990
  5.069   3.4093
  5.064   3.3578
  5.059   3.2754
  5.054   3.2651
  5.049   3.3269
  5.044   3.3578
  5.040   3.4093
  5.035   3.4196
  5.030   3.3166
  5.025   3.3063
  5.020   3.3681
  5.015   3.3990
  5.010   3.3578
  5.005   3.3578
  5.001   3.3784
  4.996   3.3784
  4.991   3.3681
  4.986   3.3784
  4.981   3.4196
  4.977   3.4505
  4.972   3.4299
  4.967   3.4608
  4.962   3.5226
  4.958   3.5123
  4.953   3.4711
  4.948   3.4505
  4.943   3.5226
  4.939   3.5432
  4.934   3.5329
  4.929   3.5844
  4.925   3.6462
  4.920   3.6668
  4.915   3.6771
  4.911   3.7595
  4.906   3.8213
  4.901   3.8007
  4.897   3.8213
  4.892   3.8831
  4.888   3.9758
  4.883   3.9861
  4.878   4.0376
  4.874   4.0994
  4.869   4.1303
  4.865   4.2127
  4.860   4.2642
  4.856   4.2539
  4.851   4.1921
  4.846   4.2024
  4.842   4.3054
  4.837   4.3878
  4.833   4.4187
  4.828   4.4599
  4.824   4.5629
  4.819   4.6968
  4.815   4.7174
  4.810   4.7071
  4.806   4.7277
  4.802   4.7998
  4.797   4.8101
  4.793   4.7277
  4.788   4.7380
  4.784   4.7895
  4.779   4.7380
  4.775   4.7277
  4.771   4.6556
  4.766   4.5629
  4.762   4.5011
  4.758   4.4084
  4.753   4.3260
  4.749   4.2745
  4.744   4.2642
  4.740   4.2436
  4.736   4.2127
  4.731   4.1612
  4.727   4.0891
  4.723   4.0685
  4.719   4.0376
  4.714   4.0788
  4.710   4.1612
  4.706   4.0994
  4.701   4.0994
  4.697   4.1818
  4.693   4.1818
  4.689   4.1303
  4.684   4.0994
  4.680   4.1612
  4.676   4.2230
  4.672   4.2230
  4.668   4.2127
  4.663   4.2127
  4.659   4.2024
  4.655   4.2642
  4.651   4.3466
  4.647   4.3157
  4.643   4.2436
  4.638   4.2024
  4.634   4.2127
  4.630   4.2539
  4.626   4.2127
  4.622   4.1509
  4.618   4.0994
  4.614   4.1303
  4.610   4.1509
  4.605   4.1612
  4.601   4.1612
  4.597   4.1509
  4.593   4.2127
  4.589   4.2024
  4.585   4.1921
  4.581   4.1921
  4.577   4.1303
  4.573   4.0994
  4.569   4.1612
  4.565   4.2333
  4.561   4.2230
  4.557   4.2024
  4.553   4.2745
  4.549   4.3054
  4.545   4.2539
  4.541   4.2436
  4.537   4.2642
  4.533   4.2848
  4.529   4.3157
  4.525   4.3363
  4.521   4.3569
  4.517   4.4290
  4.513   4.3878
  4.509   4.3569
  4.505   4.3981
  4.502   4.4187
  4.498   4.3569
  4.494   4.3260
  4.490   4.3672
  4.486   4.3260
  4.482   4.3672
  4.478   4.4393
  4.474   4.4393
  4.470   4.4187
  4.467   4.4496
  4.463   4.4599
  4.459   4.3878
  4.455   4.3775
  4.451   4.4599
  4.447   4.5423
  4.444   4.5629
  4.440   4.6041
  4.436   4.5629
  4.432   4.5629
  4.428   4.5629
  4.425   4.5938
  4.421   4.6762
  4.417   4.6968
  4.413   4.5629
  4.410   4.4908
  4.406   4.6350
  4.402   4.7071
  4.398   4.6659
  4.395   4.6556
  4.391   4.6453
  4.387   4.5732
  4.384   4.5423
  4.380   4.6350
  4.376   4.6865
  4.372   4.6968
  4.369   4.6659
  4.365   4.6659
  4.361   4.6350
  4.358   4.6453
  4.354   4.6865
  4.350   4.6556
  4.347   4.6350
  4.343   4.6968
  4.340   4.7689
  4.336   4.7689
  4.332   4.8204
  4.329   4.9028
  4.325   4.9234
  4.321   4.9440
  4.318   4.9955
  4.314   5.1500
  4.311   5.2324
  4.307   5.2324
  4.304   5.2427
  4.300   5.2839
  4.296   5.3560
  4.293   5.5002
  4.289   5.6032
  4.286   5.6444
  4.282   5.5517
  4.279   5.4899
  4.275   5.5002
  4.272   5.5208
  4.268   5.5620
  4.265   5.6856
  4.261   5.7165
  4.258   5.7268
  4.254   5.7474
  4.251   5.7886
  4.247   5.8710
  4.244   5.9534
  4.240   6.0358
  4.237   6.1079
  4.233   6.0873
  4.230   6.1182
  4.226   6.2212
  4.223   6.2830
  4.219   6.3345
  4.216   6.3551
  4.213   6.3551
  4.209   6.3860
  4.206   6.4272
  4.202   6.4581
  4.199   6.3963
  4.196   6.3654
  4.192   6.3860
  4.189   6.3345
  4.185   6.4066
  4.182   6.5920
  4.179   6.5714
  4.175   6.5096
  4.172   6.5302
  4.169   6.5714
  4.165   6.5920
  4.162   6.5096
  4.159   6.4787
  4.155   6.5714
  4.152   6.5920
  4.149   6.6332
  4.145   6.5920
  4.142   6.5817
  4.139   6.5817
  4.135   6.6332
  4.132   6.6229
  4.129   6.5405
  4.126   6.5920
  4.122   6.6229
  4.119   6.6023
  4.116   6.6847
  4.112   6.8598
  4.109   6.9319
  4.106   6.8598
  4.103   6.7774
  4.099   6.7774
  4.096   6.7774
  4.093   6.8804
  4.090   6.9113
  4.086   6.8083
  4.083   6.9216
  4.080   7.0246
  4.077   7.0555
  4.074   7.0761
  4.070   7.0143
  4.067   7.0658
  4.064   7.1379
  4.061   7.1997
  4.058   7.2100
  4.055   7.0864
  4.051   7.1173
  4.048   7.2203
  4.045   7.2409
  4.042   7.2203
  4.039   7.2615
  4.036   7.3233
  4.032   7.3233
  4.029   7.2718
  4.026   7.2306
  4.023   7.2306
  4.020   7.2615
  4.017   7.2718
  4.014   7.2924
  4.011   7.3130
  4.008   7.2821
  4.004   7.3233
  4.001   7.2615
  3.998   7.1894
  3.995   7.2924
  3.992   7.3233
  3.989   7.2924
  3.986   7.2306
  3.983   7.2718
  3.980   7.2409
  3.977   7.1791
  3.974   7.2306
  3.971   7.2821
  3.968   7.2615
  3.965   7.3027
  3.962   7.3439
  3.959   7.2924
  3.956   7.2821
  3.953   7.4160
  3.950   7.4984
  3.947   7.4881
  3.944   7.5705
  3.941   7.5499
  3.938   7.4160
  3.935   7.4057
  3.932   7.4469
  3.929   7.5087
  3.926   7.5602
  3.923   7.5190
  3.920   7.4984
  3.917   7.6014
  3.914   7.6838
  3.911   7.7147
  3.908   7.6426
  3.905   7.5808
  3.902   7.5396
  3.899   7.5499
  3.896   7.4572
  3.893   7.4572
  3.890   7.4572
  3.887   7.4984
  3.884   7.6014
  3.882   7.6117
  3.879   7.4778
  3.876   7.3851
  3.873   7.3336
  3.870   7.3542
  3.867   7.3954
  3.864   7.4675
  3.861   7.4778
  3.858   7.4572
  3.856   7.4984
  3.853   7.5499
  3.850   7.5705
  3.847   7.6838
  3.844   7.6426
  3.841   7.5705
  3.838   7.5602
  3.836   7.5705
  3.833   7.5499
  3.830   7.5190
  3.827   7.5705
  3.824   7.6014
  3.822   7.5396
  3.819   7.4984
  3.816   7.5087
  3.813   7.5705
  3.810   7.5087
  3.807   7.4366
  3.805   7.3954
  3.802   7.4675
  3.799   7.4881
  3.796   7.5190
  3.794   7.5293
  3.791   7.4469
  3.788   7.4675
  3.785   7.5087
  3.782   7.4984
  3.780   7.4778
  3.777   7.4263
  3.774   7.3748
  3.771   7.3748
  3.769   7.3233
  3.766   7.2924
  3.763   7.2512
  3.761   7.0967
  3.758   7.1688
  3.755   7.2512
  3.752   7.1894
  3.750   7.1688
  3.747   7.2306
  3.744   7.1894
  3.742   7.1276
  3.739   7.1276
  3.736   7.1276
  3.733   7.1482
  3.731   7.1379
  3.728   6.9422
  3.725   6.8804
  3.723   6.9319
  3.720   6.9113
  3.717   6.8083
  3.715   6.7877
  3.712   6.7980
  3.709   6.8083
  3.707   6.8495
  3.704   6.8289
  3.702   6.7877
  3.699   6.7465
  3.696   6.6847
  3.694   6.6023
  3.691   6.6126
  3.688   6.7053
  3.686   6.6847
  3.683   6.6023
  3.680   6.5199
  3.678   6.4890
  3.675   6.4684
  3.673   6.4581
  3.670   6.4272
  3.667   6.4375
  3.665   6.3757
  3.662   6.3242
  3.660   6.3448
  3.657   6.3860
  3.655   6.3036
  3.652   6.1800
  3.649   6.0976
  3.647   6.0976
  3.644   6.2521
  3.642   6.3242
  3.639   6.2727
  3.637   6.2727
  3.634   6.2212
  3.632   6.1182
  3.629   6.0770
  3.626   6.0461
  3.624   6.0049
  3.621   5.9843
  3.619   6.0049
  3.616   6.0255
  3.614   5.9019
  3.611   5.7989
  3.609   5.7783
  3.606   5.7783
  3.604   5.7165
  3.601   5.7268
  3.599   5.7268
  3.596   5.6856
  3.594   5.6238
  3.591   5.6135
  3.589   5.6341
  3.586   5.7165
  3.584   5.6753
  3.581   5.5929
  3.579   5.5311
