Name: Altered volcanic tuff
Type: Rock
Class: Igneous
Subclass: Felsic
Particle Size: Whole rock chips
Sample No.: Cup8
Owner: USGS
Wavelength range: 0.40 - 14.05 um
Origin: Cuprite, Nevada

Description: Altered volcanic tuff, white to light grey





Measurement: Directional Hemispherical Reflectance
First Column: X
Second Column: Y
X Units: Wavelength (micrometers)
Y Units: Reflectance (percent)
First X Value: 14.05105
Last X Value: 0.40000
Number of X Values: 2756
Additional Information: None

 14.051   2.8222
 14.013   2.8634
 13.975   2.9046
 13.938   2.9355
 13.900   3.1827
 13.863   3.1415
 13.826   3.2445
 13.790   3.1724
 13.753   3.2960
 13.717   3.2548
 13.680   3.2754
 13.644   3.2136
 13.609   3.2445
 13.573   3.1827
 13.538   3.2651
 13.502   3.3578
 13.467   3.4711
 13.432   3.4505
 13.398   3.5844
 13.363   3.6256
 13.329   3.7389
 13.295   3.8007
 13.261   3.7698
 13.227   3.6565
 13.193   3.7801
 13.160   3.8831
 13.126   3.9964
 13.093   4.0273
 13.060   4.1406
 13.027   4.2436
 12.995   4.4187
 12.962   4.5011
 12.930   4.6144
 12.898   4.6762
 12.866   4.8513
 12.834   5.0161
 12.802   5.2324
 12.771   5.1603
 12.739   5.1088
 12.708   4.9955
 12.677   4.8513
 12.646   4.5938
 12.616   4.5011
 12.585   4.4084
 12.554   4.4084
 12.524   4.2539
 12.494   4.0685
 12.464   3.7595
 12.434   3.4196
 12.404   2.9458
 12.375   2.5853
 12.345   2.3072
 12.316   2.1630
 12.287   2.0394
 12.258   2.0909
 12.229   2.1527
 12.200   2.2557
 12.171   2.3793
 12.143   2.5132
 12.115   2.5132
 12.086   2.5956
 12.058   2.6883
 12.030   2.8016
 12.002   2.8428
 11.975   3.0385
 11.947   3.1621
 11.920   3.2445
 11.892   3.2548
 11.865   3.2651
 11.838   3.2136
 11.811   3.3166
 11.784   3.4196
 11.757   3.5020
 11.731   3.5535
 11.704   3.6668
 11.678   3.7389
 11.652   3.8316
 11.626   3.8110
 11.600   3.8213
 11.574   3.8728
 11.548   4.0273
 11.522   4.0273
 11.497   4.0788
 11.471   4.1509
 11.446   4.1921
 11.421   4.1818
 11.396   4.2642
 11.371   4.2951
 11.346   4.4084
 11.321   4.4805
 11.297   4.5423
 11.272   4.4805
 11.248   4.5835
 11.223   4.6144
 11.199   4.6556
 11.175   4.6762
 11.151   4.7380
 11.127   4.7792
 11.103   4.8513
 11.079   4.8616
 11.056   4.9028
 11.032   4.9543
 11.009   5.1088
 10.985   5.0985
 10.962   5.1294
 10.939   5.0882
 10.916   5.1603
 10.893   5.2221
 10.870   5.2839
 10.848   5.2839
 10.825   5.3663
 10.802   5.3457
 10.780   5.3560
 10.758   5.3663
 10.735   5.4384
 10.713   5.4281
 10.691   5.4075
 10.669   5.4590
 10.647   5.5826
 10.625   5.6444
 10.604   5.7989
 10.582   5.8607
 10.560   5.8813
 10.539   5.9019
 10.518   6.0358
 10.496   6.1285
 10.475   6.1800
 10.454   6.1800
 10.433   6.3551
 10.412   6.4787
 10.391   6.5405
 10.370   6.6023
 10.350   6.7671
 10.329   6.8804
 10.309   7.0452
 10.288   7.2409
 10.268   7.3851
 10.247   7.5087
 10.227   7.7559
 10.207   7.8898
 10.187   8.0443
 10.167   8.1988
 10.147   8.3739
 10.127   8.4460
 10.108   8.6211
 10.088   8.8374
 10.068   9.0743
 10.049   9.1773
 10.029   9.4039
 10.010   9.5687
  9.991   9.7541
  9.972   9.9704
  9.952  10.1661
  9.933  10.2691
  9.914  10.5266
  9.895  10.7223
  9.877  10.8253
  9.858  10.9077
  9.839  11.1755
  9.821  11.3609
  9.802  11.5051
  9.783  11.6081
  9.765  11.8450
  9.747  12.0613
  9.728  12.2570
  9.710  12.4836
  9.692  12.6896
  9.674  12.7926
  9.656  12.9986
  9.638  13.0913
  9.620  13.2664
  9.602  13.4106
  9.585  13.5857
  9.567  13.8123
  9.549  14.1522
  9.532  14.3891
  9.514  14.5230
  9.497  14.7393
  9.479  15.1410
  9.462  15.5633
  9.445  16.0371
  9.428  16.5315
  9.411  17.1289
  9.394  17.6439
  9.377  18.2619
  9.360  18.9108
  9.343  19.6730
  9.326  20.4764
  9.309  21.1562
  9.293  21.7330
  9.276  22.3819
  9.259  22.8866
  9.243  23.4222
  9.226  23.8960
  9.210  24.3389
  9.194  24.6685
  9.178  24.9878
  9.161  25.1732
  9.145  25.1629
  9.129  25.1938
  9.113  25.3071
  9.097  25.2968
  9.081  25.2144
  9.065  25.0702
  9.049  24.9054
  9.034  24.7406
  9.018  24.5243
  9.002  24.2874
  8.987  24.0711
  8.971  23.8136
  8.956  23.5767
  8.940  23.2780
  8.925  22.9484
  8.909  22.6291
  8.894  22.3819
  8.879  22.0626
  8.864  21.7124
  8.849  21.4034
  8.834  21.0944
  8.819  20.7545
  8.804  20.5588
  8.789  20.3322
  8.774  20.0850
  8.759  19.8069
  8.744  19.4670
  8.730  19.0859
  8.715  18.7563
  8.700  18.4679
  8.686  18.2413
  8.671  17.8293
  8.657  17.3761
  8.642  16.9847
  8.628  16.7169
  8.614  16.5315
  8.599  16.6757
  8.585  16.9229
  8.571  17.1186
  8.557  17.2010
  8.543  17.2113
  8.529  17.2319
  8.515  17.2113
  8.501  17.0362
  8.487  16.9023
  8.473  16.7169
  8.459  16.4594
  8.445  16.1092
  8.431  15.7693
  8.418  15.3264
  8.404  14.8423
  8.391  14.4509
  8.377  14.2861
  8.363  14.2140
  8.350  14.3170
  8.337  14.5642
  8.323  14.7496
  8.310  14.7599
  8.297  14.8423
  8.283  14.9144
  8.270  14.8835
  8.257  14.7805
  8.244  14.7393
  8.231  14.5848
  8.218  14.4200
  8.205  14.2037
  8.192  14.0698
  8.179  13.7814
  8.166  13.4003
  8.153  13.0501
  8.140  12.6896
  8.128  12.1952
  8.115  11.6905
  8.102  11.1549
  8.090  10.6605
  8.077  10.1352
  8.064   9.6923
  8.052   9.1979
  8.039   8.7653
  8.027   8.3533
  8.015   7.9619
  8.002   7.5602
  7.990   7.2203
  7.978   6.8598
  7.965   6.5302
  7.953   6.2212
  7.941   5.8813
  7.929   5.5208
  7.917   5.3045
  7.905   4.9749
  7.893   4.6453
  7.881   4.3672
  7.869   4.0891
  7.857   3.7801
  7.845   3.4505
  7.833   3.1312
  7.821   2.9767
  7.809   2.7398
  7.798   2.5029
  7.786   2.3175
  7.774   2.2351
  7.763   2.0909
  7.751   1.9673
  7.739   1.8334
  7.728   1.7201
  7.716   1.5759
  7.705   1.4935
  7.694   1.3905
  7.682   1.3493
  7.671   1.2669
  7.659   1.2257
  7.648   1.1948
  7.637   1.1639
  7.626   1.0506
  7.614   0.9579
  7.603   0.9167
  7.592   0.8858
  7.581   0.7828
  7.570   0.7725
  7.559   0.7828
  7.548   0.8343
  7.537   0.8343
  7.526   0.7622
  7.515   0.6489
  7.504   0.6695
  7.493   0.6901
  7.483   0.6386
  7.472   0.5665
  7.461   0.5562
  7.450   0.5768
  7.440   0.6180
  7.429   0.6077
  7.418   0.6592
  7.408   0.5974
  7.397   0.5562
  7.387   0.5768
  7.376   0.6386
  7.366   0.5768
  7.355   0.5459
  7.345   0.6077
  7.334   0.7004
  7.324   0.6592
  7.314   0.6386
  7.303   0.6386
  7.293   0.6489
  7.283   0.6283
  7.273   0.6386
  7.263   0.6077
  7.252   0.6283
  7.242   0.6489
  7.232   0.6901
  7.222   0.7004
  7.212   0.6592
  7.202   0.6695
  7.192   0.7004
  7.182   0.6180
  7.172   0.5768
  7.162   0.5974
  7.152   0.7313
  7.143   0.7931
  7.133   0.8343
  7.123   0.7931
  7.113   0.7519
  7.103   0.7828
  7.094   0.7931
  7.084   0.7725
  7.074   0.7931
  7.065   0.8137
  7.055   0.8446
  7.046   0.8240
  7.036   0.8034
  7.026   0.7931
  7.017   0.8858
  7.007   0.8549
  6.998   0.8652
  6.989   0.9167
  6.979   0.9064
  6.970   0.8549
  6.960   0.8755
  6.951   0.9064
  6.942   0.9476
  6.932   0.9476
  6.923   0.9270
  6.914   0.9064
  6.905   0.8961
  6.896   0.9167
  6.886   0.9682
  6.877   0.9785
  6.868   0.9888
  6.859   0.9785
  6.850   0.9991
  6.841   0.9991
  6.832   1.0197
  6.823   1.0300
  6.814   1.0609
  6.805   1.0403
  6.796   1.0300
  6.787   1.0197
  6.778   1.0609
  6.770   1.0815
  6.761   1.0815
  6.752   1.0712
  6.743   1.0918
  6.734   1.1021
  6.726   1.1124
  6.717   1.1124
  6.708   1.1536
  6.700   1.1742
  6.691   1.2257
  6.682   1.2772
  6.674   1.2566
  6.665   1.1742
  6.657   1.1948
  6.648   1.2463
  6.640   1.2978
  6.631   1.3493
  6.623   1.4008
  6.614   1.3596
  6.606   1.3081
  6.597   1.3081
  6.589   1.3802
  6.581   1.4317
  6.572   1.4420
  6.564   1.4729
  6.556   1.4935
  6.547   1.4111
  6.539   1.3802
  6.531   1.4420
  6.523   1.5553
  6.514   1.5965
  6.506   1.6068
  6.498   1.6274
  6.490   1.7201
  6.482   1.7098
  6.474   1.6892
  6.466   1.6789
  6.458   1.6892
  6.450   1.7304
  6.442   1.7510
  6.434   1.7407
  6.426   1.8128
  6.418   1.7922
  6.410   1.8128
  6.402   1.8025
  6.394   1.7922
  6.386   1.7819
  6.378   1.8025
  6.370   1.7819
  6.363   1.7819
  6.355   1.7304
  6.347   1.6995
  6.339   1.6480
  6.332   1.6377
  6.324   1.6377
  6.316   1.6274
  6.308   1.6274
  6.301   1.6377
  6.293   1.5862
  6.286   1.5759
  6.278   1.5553
  6.270   1.5553
  6.263   1.5656
  6.255   1.6274
  6.248   1.6068
  6.240   1.5244
  6.233   1.4729
  6.225   1.5244
  6.218   1.5347
  6.210   1.4626
  6.203   1.4008
  6.195   1.4008
  6.188   1.3699
  6.181   1.3699
  6.173   1.3802
  6.166   1.3905
  6.159   1.3802
  6.151   1.3905
  6.144   1.3699
  6.137   1.3905
  6.130   1.3802
  6.122   1.4008
  6.115   1.3802
  6.108   1.4008
  6.101   1.3699
  6.094   1.3493
  6.086   1.3699
  6.079   1.4111
  6.072   1.3802
  6.065   1.3287
  6.058   1.3287
  6.051   1.3493
  6.044   1.4008
  6.037   1.4420
  6.030   1.4111
  6.023   1.4420
  6.016   1.3802
  6.009   1.4008
  6.002   1.4832
  5.995   1.5347
  5.988   1.5141
  5.981   1.5450
  5.974   1.5347
  5.967   1.5347
  5.960   1.5965
  5.954   1.6377
  5.947   1.5759
  5.940   1.6068
  5.933   1.6686
  5.926   1.6892
  5.920   1.7098
  5.913   1.7407
  5.906   1.7819
  5.899   1.8025
  5.893   1.8231
  5.886   1.8643
  5.879   1.9364
  5.873   1.9158
  5.866   1.8746
  5.859   1.8952
  5.853   1.8849
  5.846   1.9055
  5.840   1.8952
  5.833   1.8849
  5.827   1.9364
  5.820   1.9776
  5.813   1.9570
  5.807   1.9467
  5.800   1.9261
  5.794   1.9467
  5.788   1.9570
  5.781   1.9467
  5.775   1.8849
  5.768   1.9467
  5.762   2.0085
  5.755   1.9879
  5.749   1.9673
  5.743   1.9673
  5.736   1.9364
  5.730   1.9261
  5.724   1.9570
  5.717   2.0188
  5.711   2.0291
  5.705   1.9982
  5.698   1.9879
  5.692   1.9776
  5.686   1.9776
  5.680   1.9982
  5.674   1.9982
  5.667   1.9673
  5.661   1.9364
  5.655   1.9776
  5.649   1.9879
  5.643   2.0085
  5.637   2.0188
  5.630   2.0703
  5.624   2.1115
  5.618   2.1115
  5.612   2.1115
  5.606   2.1012
  5.600   2.0703
  5.594   2.0188
  5.588   2.0188
  5.582   2.0600
  5.576   2.0806
  5.570   2.0600
  5.564   2.0806
  5.558   2.1012
  5.552   2.1012
  5.546   2.1321
  5.540   2.1424
  5.534   2.1321
  5.528   2.1012
  5.523   2.1527
  5.517   2.1939
  5.511   2.1836
  5.505   2.1733
  5.499   2.1836
  5.493   2.2145
  5.487   2.2248
  5.482   2.2351
  5.476   2.2454
  5.470   2.2763
  5.464   2.2866
  5.459   2.2866
  5.453   2.2763
  5.447   2.2351
  5.441   2.2145
  5.436   2.2454
  5.430   2.2454
  5.424   2.1424
  5.419   2.1321
  5.413   2.1733
  5.407   2.1424
  5.402   2.1424
  5.396   2.1424
  5.390   2.0909
  5.385   2.0806
  5.379   2.0703
  5.374   1.9879
  5.368   1.8952
  5.363   1.9261
  5.357   1.9261
  5.352   1.8746
  5.346   1.8231
  5.341   1.8128
  5.335   1.8334
  5.330   1.8540
  5.324   1.8849
  5.319   1.9261
  5.313   1.9570
  5.308   1.9364
  5.302   1.8643
  5.297   1.8849
  5.291   1.9364
  5.286   1.9364
  5.281   1.9261
  5.275   1.9570
  5.270   1.9673
  5.265   1.9467
  5.259   1.9879
  5.254   2.0703
  5.249   2.0909
  5.243   2.1115
  5.238   2.1630
  5.233   2.1733
  5.227   2.2042
  5.222   2.2660
  5.217   2.2866
  5.212   2.3072
  5.206   2.3484
  5.201   2.3896
  5.196   2.4308
  5.191   2.4514
  5.186   2.4926
  5.180   2.5750
  5.175   2.5956
  5.170   2.5956
  5.165   2.6059
  5.160   2.6265
  5.155   2.5853
  5.150   2.5750
  5.145   2.6162
  5.139   2.6677
  5.134   2.6883
  5.129   2.6368
  5.124   2.5956
  5.119   2.6059
  5.114   2.6059
  5.109   2.5956
  5.104   2.5750
  5.099   2.5647
  5.094   2.5441
  5.089   2.5441
  5.084   2.5956
  5.079   2.5853
  5.074   2.5132
  5.069   2.4720
  5.064   2.4823
  5.059   2.4720
  5.054   2.4720
  5.049   2.4411
  5.044   2.3999
  5.040   2.4308
  5.035   2.4514
  5.030   2.4926
  5.025   2.4617
  5.020   2.4308
  5.015   2.4308
  5.010   2.4308
  5.005   2.4308
  5.001   2.4308
  4.996   2.3999
  4.991   2.4102
  4.986   2.4411
  4.981   2.4308
  4.977   2.4205
  4.972   2.4617
  4.967   2.5132
  4.962   2.5132
  4.958   2.4823
  4.953   2.4720
  4.948   2.5235
  4.943   2.5647
  4.939   2.6265
  4.934   2.6986
  4.929   2.7089
  4.925   2.7398
  4.920   2.7913
  4.915   2.8222
  4.911   2.8737
  4.906   2.9664
  4.901   3.0797
  4.897   3.1724
  4.892   3.2857
  4.888   3.3681
  4.883   3.4814
  4.878   3.5844
  4.874   3.6771
  4.869   3.7801
  4.865   3.8625
  4.860   3.9552
  4.856   4.0376
  4.851   4.1818
  4.846   4.3054
  4.842   4.3775
  4.837   4.4393
  4.833   4.5732
  4.828   4.7071
  4.824   4.8101
  4.819   4.8925
  4.815   4.9852
  4.810   5.0264
  4.806   5.0779
  4.802   5.1706
  4.797   5.2427
  4.793   5.2736
  4.788   5.3354
  4.784   5.4487
  4.779   5.5002
  4.775   5.5311
  4.771   5.5723
  4.766   5.6032
  4.762   5.6856
  4.758   5.7783
  4.753   5.8401
  4.749   5.8504
  4.744   5.7783
  4.740   5.7268
  4.736   5.7783
  4.731   5.8195
  4.727   5.9019
  4.723   5.9225
  4.719   5.8916
  4.714   5.9225
  4.710   5.9534
  4.706   5.9534
  4.701   5.9637
  4.697   6.0667
  4.693   6.0770
  4.689   5.9740
  4.684   5.9534
  4.680   5.9740
  4.676   5.9740
  4.672   5.9637
  4.668   5.9843
  4.663   6.0667
  4.659   6.0770
  4.655   6.0358
  4.651   6.0461
  4.647   6.0255
  4.643   6.0358
  4.638   6.0976
  4.634   6.1388
  4.630   6.1903
  4.626   6.2212
  4.622   6.2933
  4.618   6.3654
  4.614   6.3654
  4.610   6.3654
  4.605   6.4272
  4.601   6.4787
  4.597   6.4787
  4.593   6.4993
  4.589   6.5199
  4.585   6.5508
  4.581   6.5817
  4.577   6.6538
  4.573   6.6641
  4.569   6.7053
  4.565   6.7774
  4.561   6.8083
  4.557   6.7980
  4.553   6.7774
  4.549   6.8083
  4.545   6.7671
  4.541   6.6950
  4.537   6.6950
  4.533   6.7362
  4.529   6.7980
  4.525   6.7568
  4.521   6.7053
  4.517   6.7362
  4.513   6.7259
  4.509   6.6950
  4.505   6.6847
  4.502   6.6023
  4.498   6.5302
  4.494   6.5405
  4.490   6.6435
  4.486   6.6641
  4.482   6.5920
  4.478   6.5096
  4.474   6.4993
  4.470   6.5199
  4.467   6.4684
  4.463   6.4169
  4.459   6.4581
  4.455   6.4375
  4.451   6.3860
  4.447   6.3654
  4.444   6.3345
  4.440   6.3242
  4.436   6.3654
  4.432   6.3448
  4.428   6.2315
  4.425   6.1903
  4.421   6.1594
  4.417   6.1388
  4.413   6.1285
  4.410   6.1388
  4.406   6.1594
  4.402   6.1285
  4.398   6.0976
  4.395   6.1903
  4.391   6.2521
  4.387   6.2521
  4.384   6.1800
  4.380   6.1182
  4.376   6.1800
  4.372   6.2624
  4.369   6.3139
  4.365   6.3757
  4.361   6.3963
  4.358   6.4375
  4.354   6.4581
  4.350   6.4890
  4.347   6.5817
  4.343   6.6641
  4.340   6.6950
  4.336   6.6950
  4.332   6.7980
  4.329   6.9010
  4.325   6.9422
  4.321   7.0246
  4.318   7.0452
  4.314   7.0143
  4.311   7.1173
  4.307   7.2203
  4.304   7.2821
  4.300   7.3542
  4.296   7.3954
  4.293   7.4366
  4.289   7.5190
  4.286   7.6220
  4.282   7.6529
  4.279   7.7456
  4.275   7.6838
  4.272   7.6529
  4.268   7.6426
  4.265   7.7559
  4.261   7.8177
  4.258   7.8383
  4.254   7.9207
  4.251   8.0340
  4.247   8.1370
  4.244   8.3224
  4.240   8.4151
  4.237   8.4563
  4.233   8.5181
  4.230   8.5593
  4.226   8.5593
  4.223   8.6005
  4.219   8.6726
  4.216   8.7035
  4.213   8.7035
  4.209   8.7653
  4.206   8.7344
  4.202   8.7035
  4.199   8.7138
  4.196   8.7241
  4.192   8.7756
  4.189   8.8374
  4.185   8.7859
  4.182   8.7962
  4.179   8.8477
  4.175   8.9404
  4.172   9.0022
  4.169   8.9919
  4.165   9.0743
  4.162   9.1464
  4.159   9.0846
  4.155   9.0846
  4.152   9.1155
  4.149   9.1773
  4.145   9.1876
  4.142   9.2082
  4.139   9.2391
  4.135   9.2803
  4.132   9.3009
  4.129   9.3215
  4.126   9.3833
  4.122   9.4451
  4.119   9.4760
  4.116   9.4142
  4.112   9.3627
  4.109   9.4142
  4.106   9.4760
  4.103   9.5172
  4.099   9.5687
  4.096   9.5584
  4.093   9.5378
  4.090   9.6408
  4.086   9.6408
  4.083   9.6820
  4.080   9.7438
  4.077   9.7335
  4.074   9.7129
  4.070   9.7644
  4.067   9.8674
  4.064   9.8674
  4.061   9.8880
  4.058   9.9395
  4.055   9.9189
  4.051   9.9292
  4.048   9.9498
  4.045  10.0219
  4.042  10.0631
  4.039  10.0528
  4.036  10.1043
  4.032  10.1558
  4.029  10.1146
  4.026  10.0837
  4.023  10.0631
  4.020  10.1558
  4.017  10.1764
  4.014  10.1558
  4.011  10.1146
  4.008  10.0425
  4.004   9.9498
  4.001   9.8983
  3.998   9.9395
  3.995   9.9292
  3.992   9.8880
  3.989   9.9395
  3.986   9.9910
  3.983  10.0322
  3.980  10.0013
  3.977  10.0013
  3.974  10.0631
  3.971  10.0322
  3.968   9.9601
  3.965   9.9910
  3.962  10.0631
  3.959  10.0322
  3.956  10.0219
  3.953  10.0940
  3.950  10.0734
  3.947  10.1146
  3.944  10.1455
  3.941  10.1043
  3.938  10.0013
  3.935   9.9086
  3.932   9.8983
  3.929  10.0219
  3.926  10.0322
  3.923   9.9704
  3.920   9.9807
  3.917   9.9498
  3.914   9.9189
  3.911   9.9189
  3.908   9.8674
  3.905   9.8983
  3.902   9.8983
  3.899   9.8365
  3.896   9.9292
  3.893  10.0528
  3.890  10.0425
  3.887   9.9498
  3.884   9.8468
  3.882   9.8880
  3.879   9.9395
  3.876   9.9807
  3.873  10.0013
  3.870   9.9704
  3.867   9.9086
  3.864   9.9395
  3.861   9.9498
  3.858   9.9910
  3.856  10.0528
  3.853   9.9601
  3.850   9.8468
  3.847   9.8777
  3.844   9.9910
  3.841  10.0631
  3.838   9.9807
  3.836   9.9601
  3.833   9.9189
  3.830   9.8880
  3.827   9.8674
  3.824   9.8262
  3.822   9.7644
  3.819   9.7438
  3.816   9.7644
  3.813   9.7747
  3.810   9.8468
  3.807   9.8983
  3.805   9.8468
  3.802   9.8571
  3.799   9.7438
  3.796   9.7438
  3.794   9.7232
  3.791   9.7026
  3.788   9.6408
  3.785   9.6408
  3.782   9.6099
  3.780   9.5481
  3.777   9.5378
  3.774   9.4966
  3.771   9.5275
  3.769   9.5790
  3.766   9.4554
  3.763   9.4039
  3.761   9.3833
  3.758   9.3730
  3.755   9.3730
  3.752   9.3936
  3.750   9.2906
  3.747   9.1670
  3.744   9.1464
  3.742   9.2185
  3.739   9.1464
  3.736   9.0125
  3.733   8.9610
  3.731   9.0331
  3.728   9.0846
  3.725   9.0537
  3.723   8.9301
  3.720   8.8374
  3.717   8.8477
  3.715   8.8374
  3.712   8.8065
  3.709   8.7653
  3.707   8.7344
  3.704   8.6932
  3.702   8.6108
  3.699   8.6211
  3.696   8.6211
  3.694   8.6417
  3.691   8.6005
  3.688   8.5593
  3.686   8.4872
  3.683   8.4769
  3.680   8.3945
  3.678   8.3636
  3.675   8.3533
  3.673   8.3739
  3.670   8.3739
  3.667   8.2812
  3.665   8.2091
  3.662   8.1370
  3.660   8.1679
  3.657   8.1885
  3.655   8.0958
  3.652   8.0443
  3.649   7.9619
  3.647   7.9104
  3.644   7.9516
  3.642   7.9207
  3.639   7.8486
  3.637   7.8795
  3.634   7.8177
  3.632   7.7147
  3.629   7.6426
  3.626   7.5293
  3.624   7.4160
  3.621   7.3954
  3.619   7.2718
  3.616   7.2306
  3.614   7.1997
  3.611   7.0658
  3.609   7.0246
  3.606   7.0967
  3.604   7.0658
  3.601   7.0246
  3.599   7.0658
  3.596   7.0967
  3.594   7.1173
  3.591   7.1173
  3.589   7.0349
  3.586   6.9731
  3.584   6.9525
  3.581   6.9731
  3.579   6.9628
