Name: Thenardite Na2SO4
Type: Mineral
Class: Sulfate
Subclass: None
Particle Size: Unsieved coarse powder
Sample No.: None
Owner: USGS
Wavelength range: 0.40 - 14.05 um
Origin: Saline Valley, California

Description: Thenardite from Saline Valley, California





Measurement: Directional Hemispherical Reflectance
First Column: X
Second Column: Y
X Units: Wavelength (micrometers)
Y Units: Reflectance (percent)
First X Value: 14.05105
Last X Value: 0.40000
Number of X Values: 2756
Additional Information: None

 14.051   6.4684
 14.013   6.5405
 13.975   6.7465
 13.938   6.6538
 13.900   6.7053
 13.863   6.7362
 13.826   6.9422
 13.790   7.0040
 13.753   7.2203
 13.717   7.3954
 13.680   7.7353
 13.644   7.8589
 13.609   7.9310
 13.573   7.9516
 13.538   8.0649
 13.502   8.0546
 13.467   8.1576
 13.432   8.1370
 13.398   8.1370
 13.363   8.1473
 13.329   8.3121
 13.295   8.3739
 13.261   8.4460
 13.227   8.4254
 13.193   8.5284
 13.160   8.5902
 13.126   8.6314
 13.093   8.6417
 13.060   8.8168
 13.027   8.8168
 12.995   8.8580
 12.962   8.7550
 12.930   8.7756
 12.898   8.7962
 12.866   8.8889
 12.834   8.9095
 12.802   9.0228
 12.771   9.0640
 12.739   9.1773
 12.708   9.1773
 12.677   9.2906
 12.646   9.3833
 12.616   9.5275
 12.585   9.5996
 12.554   9.7026
 12.524   9.7438
 12.494   9.8262
 12.464   9.9086
 12.434  10.1043
 12.404  10.1661
 12.375  10.3103
 12.345  10.4957
 12.316  10.7738
 12.287  10.9180
 12.258  11.1137
 12.229  11.1652
 12.200  11.2270
 12.171  11.2579
 12.143  11.3815
 12.115  11.4536
 12.086  11.6802
 12.058  11.8656
 12.030  12.0613
 12.002  12.2158
 11.975  12.4218
 11.947  12.5866
 11.920  12.7514
 11.892  12.7926
 11.865  12.8853
 11.838  12.9059
 11.811  13.0192
 11.784  13.0810
 11.757  13.1325
 11.731  13.1634
 11.704  13.1531
 11.678  13.0089
 11.652  12.9986
 11.626  12.9677
 11.600  12.9677
 11.574  12.8441
 11.548  12.7102
 11.522  12.4424
 11.497  12.1643
 11.471  11.9274
 11.446  12.0201
 11.421  12.2467
 11.396  12.5454
 11.371  12.5763
 11.346  12.5145
 11.321  12.5248
 11.297  12.6793
 11.272  12.6999
 11.248  12.7617
 11.223  12.8235
 11.199  12.9265
 11.175  12.9265
 11.151  12.9471
 11.127  12.8853
 11.103  12.8853
 11.079  12.9471
 11.056  13.0398
 11.032  13.0604
 11.009  13.1531
 10.985  13.2046
 10.962  13.3076
 10.939  13.2252
 10.916  13.0913
 10.893  12.9471
 10.870  12.9162
 10.848  12.7926
 10.825  12.6793
 10.802  12.4836
 10.780  12.3291
 10.758  12.2364
 10.735  12.3291
 10.713  12.3600
 10.691  12.4012
 10.669  12.3806
 10.647  12.4012
 10.625  12.3394
 10.604  12.2364
 10.582  12.0819
 10.560  11.9995
 10.539  11.8965
 10.518  11.8656
 10.496  11.8347
 10.475  11.8141
 10.454  11.6905
 10.433  11.6390
 10.412  11.4742
 10.391  11.3094
 10.370  11.1343
 10.350  11.0519
 10.329  10.9180
 10.309  10.7738
 10.288  10.6090
 10.268  10.5060
 10.247  10.0116
 10.227   9.5584
 10.207   9.7129
 10.187   9.9807
 10.167   9.9498
 10.147   9.8983
 10.127   9.7747
 10.108   9.7026
 10.088   9.5275
 10.068   9.4451
 10.049   9.4348
 10.029   9.5584
 10.010   9.5687
  9.991   9.5687
  9.972   9.4863
  9.952   9.4554
  9.933   9.4451
  9.914   9.4554
  9.895   9.3936
  9.877   9.3318
  9.858   9.2185
  9.839   9.2391
  9.821   9.1979
  9.802   9.1464
  9.783   9.1258
  9.765   9.1773
  9.747   9.1979
  9.728   9.2082
  9.710   9.1773
  9.692   9.2082
  9.674   9.1773
  9.656   9.1155
  9.638   9.0228
  9.620   8.9713
  9.602   8.8271
  9.585   8.7859
  9.567   8.7447
  9.549   8.6829
  9.532   8.5902
  9.514   8.6211
  9.497   8.5387
  9.479   8.4769
  9.462   8.3739
  9.445   8.3430
  9.428   8.2709
  9.411   8.1576
  9.394   7.9722
  9.377   7.9104
  9.360   7.9001
  9.343   7.8692
  9.326   7.7250
  9.309   7.7250
  9.293   7.6632
  9.276   7.5705
  9.259   7.4778
  9.243   7.4572
  9.226   7.3748
  9.210   7.3748
  9.194   7.4057
  9.178   7.4881
  9.161   7.6529
  9.145   7.8692
  9.129   8.0649
  9.113   8.4048
  9.097   8.7344
  9.081   9.3421
  9.065  10.1146
  9.049  10.9283
  9.034  11.6390
  9.018  12.3806
  9.002  13.0810
  8.987  13.8844
  8.971  14.7187
  8.956  15.6663
  8.940  16.6448
  8.925  17.9117
  8.909  19.4052
  8.894  20.9605
  8.879  22.2686
  8.864  23.4016
  8.849  24.2874
  8.834  24.8436
  8.819  24.9157
  8.804  24.8436
  8.789  24.7097
  8.774  24.6067
  8.759  24.3492
  8.744  24.1329
  8.730  23.8857
  8.715  23.6282
  8.700  23.4428
  8.686  23.3192
  8.671  23.1544
  8.657  23.0411
  8.642  22.8969
  8.628  22.7527
  8.614  22.6188
  8.599  22.5982
  8.585  22.5776
  8.571  22.6909
  8.557  22.9381
  8.543  23.3604
  8.529  23.9681
  8.515  24.7921
  8.501  25.6058
  8.487  26.4401
  8.473  27.1302
  8.459  27.5010
  8.445  27.1920
  8.431  26.4092
  8.418  25.5852
  8.404  24.9569
  8.391  24.3492
  8.377  23.8239
  8.363  23.3604
  8.350  23.0205
  8.337  22.6703
  8.323  22.2789
  8.310  21.4549
  8.297  19.9202
  8.283  17.8705
  8.270  15.7899
  8.257  13.8020
  8.244  12.0510
  8.231  10.4854
  8.218   9.1361
  8.205   7.9310
  8.192   6.9731
  8.179   6.1079
  8.166   5.3354
  8.153   4.6659
  8.140   4.1097
  8.128   3.5947
  8.115   3.1827
  8.102   2.7707
  8.090   2.4720
  8.077   2.2248
  8.064   2.0188
  8.052   1.8437
  8.039   1.7613
  8.027   1.6995
  8.015   1.6274
  8.002   1.5038
  7.990   1.4935
  7.978   1.4317
  7.965   1.4008
  7.953   1.3287
  7.941   1.3184
  7.929   1.2772
  7.917   1.2360
  7.905   1.2257
  7.893   1.2154
  7.881   1.1433
  7.869   1.1742
  7.857   1.2051
  7.845   1.2566
  7.833   1.2360
  7.821   1.2566
  7.809   1.2566
  7.798   1.2978
  7.786   1.2978
  7.774   1.3390
  7.763   1.3493
  7.751   1.3905
  7.739   1.4111
  7.728   1.4832
  7.716   1.5244
  7.705   1.5759
  7.694   1.5965
  7.682   1.6377
  7.671   1.6377
  7.659   1.6892
  7.648   1.7201
  7.637   1.8540
  7.626   1.9467
  7.614   2.0188
  7.603   2.0291
  7.592   2.1012
  7.581   2.1733
  7.570   2.2969
  7.559   2.3278
  7.548   2.4205
  7.537   2.5029
  7.526   2.5853
  7.515   2.6265
  7.504   2.6986
  7.493   2.7707
  7.483   2.8737
  7.472   2.9561
  7.461   3.0488
  7.450   3.1003
  7.440   3.1415
  7.429   3.2239
  7.418   3.3372
  7.408   3.3784
  7.397   3.4299
  7.387   3.5123
  7.376   3.7183
  7.366   3.8316
  7.355   3.9861
  7.345   4.2024
  7.334   4.3878
  7.324   4.4805
  7.314   4.6762
  7.303   4.8616
  7.293   5.0779
  7.283   5.2530
  7.273   5.4899
  7.263   5.7268
  7.252   5.9328
  7.242   6.1285
  7.232   6.3551
  7.222   6.4890
  7.212   6.6538
  7.202   6.8289
  7.192   7.0040
  7.182   7.0658
  7.172   7.2100
  7.162   7.3851
  7.152   7.5293
  7.143   7.6632
  7.133   7.8486
  7.123   7.9207
  7.113   8.0031
  7.103   8.3121
  7.094   8.8374
  7.084   9.2597
  7.074   9.5790
  7.065   9.8262
  7.055   9.9601
  7.046  10.0116
  7.036  10.0322
  7.026  10.0116
  7.017  10.2279
  7.007  10.5987
  6.998  10.9077
  6.989  11.1240
  6.979  11.1858
  6.970  11.0004
  6.960  11.1446
  6.951  11.6802
  6.942  12.0098
  6.932  12.2158
  6.923  12.4836
  6.914  12.6896
  6.905  12.9162
  6.896  13.1119
  6.886  13.2870
  6.877  13.4621
  6.868  13.6990
  6.859  13.9668
  6.850  14.1419
  6.841  14.1934
  6.832  14.2964
  6.823  14.4097
  6.814  14.5024
  6.805  14.5642
  6.796  14.5848
  6.787  14.5745
  6.778  14.4509
  6.770  14.1007
  6.761  13.8020
  6.752  14.0492
  6.743  14.8938
  6.734  15.5736
  6.726  16.0062
  6.717  16.3152
  6.708  16.5727
  6.700  16.7684
  6.691  16.9435
  6.682  17.1804
  6.674  17.4585
  6.665  17.6130
  6.657  17.7263
  6.648  17.8602
  6.640  18.1280
  6.631  18.4164
  6.623  18.4782
  6.614  18.4782
  6.606  18.5606
  6.597  18.5812
  6.589  18.6430
  6.581  18.7151
  6.572  18.8593
  6.564  18.9520
  6.556  18.8490
  6.547  18.7357
  6.539  18.6430
  6.531  18.5091
  6.523  18.3649
  6.514  18.1280
  6.506  17.7469
  6.498  17.4791
  6.490  17.2525
  6.482  16.7066
  6.474  16.0062
  6.466  15.2440
  6.458  14.4097
  6.450  13.5239
  6.442  12.6690
  6.434  11.8656
  6.426  11.1343
  6.418  10.6708
  6.410  10.6193
  6.402  10.4751
  6.394  10.3515
  6.386  10.3618
  6.378  10.3721
  6.370  10.2897
  6.363  10.1867
  6.355  10.0528
  6.347  10.0219
  6.339   9.9601
  6.332   9.8571
  6.324   9.7747
  6.316   9.7026
  6.308   9.6202
  6.301   9.5996
  6.293   9.5687
  6.286   9.6202
  6.278   9.6408
  6.270   9.6717
  6.263   9.6408
  6.255   9.5687
  6.248   9.3318
  6.240   8.9301
  6.233   8.4666
  6.225   8.0958
  6.218   7.9207
  6.210   8.0134
  6.203   8.1885
  6.195   8.4151
  6.188   8.5902
  6.181   8.7756
  6.173   8.9507
  6.166   9.3009
  6.159   9.9292
  6.151  10.7841
  6.144  11.4845
  6.137  11.9583
  6.130  12.0922
  6.122  11.9583
  6.115  11.6081
  6.108  11.1137
  6.101  10.6296
  6.094  10.5060
  6.086  10.8047
  6.079  11.4536
  6.072  12.3600
  6.065  13.3488
  6.058  14.0698
  6.051  14.6466
  6.044  15.2131
  6.037  15.5427
  6.030  15.6869
  6.023  15.9032
  6.016  16.1195
  6.009  16.3255
  6.002  16.4800
  5.995  16.6448
  5.988  16.8714
  5.981  17.0774
  5.974  17.1186
  5.967  17.1392
  5.960  17.0671
  5.954  16.9538
  5.947  16.8920
  5.940  17.1495
  5.933  17.5718
  5.926  18.0044
  5.920  18.4164
  5.913  18.8696
  5.906  19.3640
  5.899  19.9820
  5.893  20.7751
  5.886  21.4549
  5.879  22.1347
  5.873  22.7527
  5.866  22.8969
  5.859  23.0308
  5.853  23.2059
  5.846  23.4016
  5.840  23.4737
  5.833  23.5046
  5.827  23.4428
  5.820  23.2677
  5.813  22.7939
  5.807  22.1244
  5.800  21.5373
  5.794  21.0223
  5.788  20.5794
  5.781  20.2910
  5.775  20.1468
  5.768  20.1468
  5.762  20.2189
  5.755  20.1262
  5.749  20.0438
  5.743  20.0438
  5.736  19.9820
  5.730  19.9099
  5.724  19.7554
  5.717  19.5803
  5.711  19.5082
  5.705  19.6318
  5.698  19.9305
  5.692  20.4249
  5.686  20.9502
  5.680  21.3210
  5.674  21.6403
  5.667  21.9699
  5.661  22.2377
  5.655  22.5467
  5.649  22.8660
  5.643  23.2677
  5.637  23.7518
  5.630  24.1432
  5.624  24.5243
  5.618  24.9775
  5.612  25.4513
  5.606  25.8221
  5.600  26.1311
  5.594  26.4092
  5.588  26.6049
  5.582  26.8418
  5.576  27.0684
  5.570  27.1920
  5.564  27.2641
  5.558  27.3774
  5.552  27.4907
  5.546  27.6555
  5.540  27.7688
  5.534  27.8409
  5.528  27.8615
  5.523  27.9439
  5.517  27.9851
  5.511  27.9645
  5.505  27.9336
  5.499  27.9851
  5.493  28.0263
  5.487  28.1396
  5.482  28.3971
  5.476  28.8194
  5.470  29.3138
  5.464  29.9627
  5.459  30.7867
  5.453  31.6004
  5.447  32.3317
  5.441  32.9806
  5.436  33.4647
  5.430  33.8355
  5.424  34.2475
  5.419  34.7110
  5.413  35.1230
  5.407  35.6174
  5.402  36.1839
  5.396  36.7298
  5.390  37.1624
  5.385  37.4611
  5.379  37.6568
  5.374  37.7804
  5.368  37.8525
  5.363  37.9452
  5.357  38.0379
  5.352  38.1924
  5.346  38.3160
  5.341  38.3263
  5.335  38.3778
  5.330  38.4911
  5.324  38.5426
  5.319  38.5941
  5.313  38.6559
  5.308  38.7177
  5.302  38.7692
  5.297  38.8310
  5.291  38.8516
  5.286  38.8825
  5.281  38.9031
  5.275  38.9443
  5.270  39.0267
  5.265  39.1194
  5.259  39.1709
  5.254  39.2121
  5.249  39.2842
  5.243  39.3666
  5.238  39.4284
  5.233  39.5005
  5.227  39.5623
  5.222  39.6241
  5.217  39.6653
  5.212  39.7168
  5.206  39.7374
  5.201  39.7374
  5.196  39.7580
  5.191  39.8095
  5.186  39.7786
  5.180  39.7065
  5.175  39.7271
  5.170  39.7477
  5.165  39.6653
  5.160  39.5829
  5.155  39.5005
  5.150  39.4696
  5.145  39.3975
  5.139  39.2018
  5.134  38.9752
  5.129  38.7692
  5.124  38.6353
  5.119  38.6868
  5.114  38.7589
  5.109  38.7486
  5.104  38.6044
  5.099  38.4911
  5.094  38.3675
  5.089  38.2027
  5.084  38.0894
  5.079  37.9452
  5.074  37.7907
  5.069  37.6774
  5.064  37.5435
  5.059  37.3272
  5.054  37.1418
  5.049  36.9770
  5.044  36.7813
  5.040  36.5753
  5.035  36.4002
  5.030  36.3178
  5.025  36.2869
  5.020  36.2251
  5.015  36.1324
  5.010  36.0397
  5.005  35.9058
  5.001  35.7101
  4.996  35.5350
  4.991  35.3702
  4.986  35.1642
  4.981  34.9685
  4.977  34.7728
  4.972  34.5874
  4.967  34.3917
  4.962  34.1651
  4.958  33.9591
  4.953  33.7222
  4.948  33.4544
  4.943  33.1763
  4.939  32.8982
  4.934  32.6304
  4.929  32.2905
  4.925  31.8991
  4.920  31.5180
  4.915  31.1472
  4.911  30.7146
  4.906  30.2820
  4.901  29.8082
  4.897  29.3241
  4.892  28.8091
  4.888  28.2632
  4.883  27.6761
  4.878  27.0066
  4.874  26.3371
  4.869  25.6882
  4.865  25.0084
  4.860  24.2256
  4.856  23.4016
  4.851  22.4849
  4.846  21.4858
  4.842  20.4558
  4.837  19.6215
  4.833  18.9726
  4.828  18.2722
  4.824  17.3864
  4.819  16.2740
  4.815  15.0792
  4.810  13.8226
  4.806  12.4836
  4.802  11.0828
  4.797   9.5687
  4.793   8.0649
  4.788   6.8289
  4.784   5.8401
  4.779   4.9955
  4.775   4.4290
  4.771   4.2745
  4.766   4.3775
  4.762   4.4908
  4.758   4.5320
  4.753   4.5526
  4.749   4.5732
  4.744   4.5732
  4.740   4.5217
  4.736   4.4702
  4.731   4.5938
  4.727   4.9028
  4.723   5.3148
  4.719   5.8092
  4.714   6.3448
  4.710   6.7980
  4.706   7.1791
  4.701   7.5602
  4.697   7.9104
  4.693   8.2091
  4.689   8.4563
  4.684   8.6211
  4.680   8.6417
  4.676   8.5593
  4.672   8.4460
  4.668   8.3945
  4.663   8.4460
  4.659   8.5593
  4.655   8.7241
  4.651   8.8477
  4.647   8.9404
  4.643   9.1155
  4.638   9.2906
  4.634   9.4863
  4.630   9.7850
  4.626  10.1249
  4.622  10.3721
  4.618  10.4339
  4.614  10.3000
  4.610   9.9807
  4.605   9.5378
  4.601   9.0640
  4.597   8.7241
  4.593   8.4460
  4.589   8.1679
  4.585   7.9825
  4.581   7.8795
  4.577   7.8486
  4.573   7.9619
  4.569   8.1988
  4.565   8.6108
  4.561   9.3730
  4.557  10.6605
  4.553  12.3909
  4.549  14.0904
  4.545  15.3058
  4.541  15.9341
  4.537  15.9547
  4.533  15.4809
  4.529  14.6981
  4.525  13.6578
  4.521  12.6175
  4.517  11.7111
  4.513  10.9901
  4.509  10.5163
  4.505  10.1352
  4.502   9.7438
  4.498   9.3730
  4.494   9.1258
  4.490   9.0228
  4.486   9.0537
  4.482   9.0640
  4.478   8.9919
  4.474   8.8992
  4.470   8.8786
  4.467   8.8992
  4.463   8.9404
  4.459   8.9404
  4.455   8.8683
  4.451   8.7550
  4.447   8.6726
  4.444   8.6520
  4.440   8.7447
  4.436   8.8477
  4.432   8.9610
  4.428   9.0743
  4.425   9.2700
  4.421   9.4451
  4.417   9.6202
  4.413   9.8056
  4.410   9.9292
  4.406  10.0528
  4.402  10.2073
  4.398  10.3412
  4.395  10.5678
  4.391  10.7635
  4.387  10.8974
  4.384  10.9798
  4.380  10.9798
  4.376  10.9077
  4.372  10.7532
  4.369  10.5781
  4.365  10.4236
  4.361  10.2794
  4.358  10.1455
  4.354  10.0940
  4.350  10.1764
  4.347  10.3515
  4.343  10.6296
  4.340  11.0107
  4.336  11.4639
  4.332  11.9377
  4.329  12.3806
  4.325  12.7308
  4.321  13.0604
  4.318  13.4106
  4.314  13.8123
  4.311  14.1419
  4.307  14.4921
  4.304  14.9453
  4.300  15.5530
  4.296  16.3255
  4.293  17.1598
  4.289  17.9941
  4.286  18.8078
  4.282  19.4155
  4.279  19.6627
  4.275  19.5185
  4.272  19.1992
  4.268  19.1065
  4.265  19.5906
  4.261  20.5588
  4.258  21.8051
  4.254  23.1647
  4.251  24.6479
  4.247  26.0487
  4.244  27.2435
  4.240  28.1705
  4.237  28.8812
  4.233  29.4580
  4.230  29.9627
  4.226  30.4365
  4.223  30.8382
  4.219  31.0957
  4.216  31.3326
  4.213  31.6004
  4.209  31.9197
  4.206  32.1669
  4.202  32.3729
  4.199  32.6098
  4.196  32.8673
  4.192  33.0939
  4.189  33.3514
  4.185  33.5677
  4.182  33.8149
  4.179  34.0827
  4.175  34.3814
  4.172  34.6389
  4.169  34.8552
  4.165  35.0715
  4.162  35.3290
  4.159  35.5556
  4.155  35.8543
  4.152  36.0809
  4.149  36.2972
  4.145  36.5238
  4.142  36.7195
  4.139  36.8843
  4.135  37.1521
  4.132  37.4096
  4.129  37.6259
  4.126  37.8525
  4.122  38.0585
  4.119  38.2130
  4.116  38.4396
  4.112  38.7177
  4.109  38.9134
  4.106  39.0988
  4.103  39.3048
  4.099  39.5005
  4.096  39.7271
  4.093  39.9022
  4.090  40.0567
  4.086  40.2215
  4.083  40.3760
  4.080  40.5099
  4.077  40.6953
  4.074  40.8498
  4.070  41.0146
  4.067  41.1382
  4.064  41.3030
  4.061  41.5090
  4.058  41.6738
  4.055  41.8901
  4.051  42.0343
  4.048  42.1167
  4.045  42.2712
  4.042  42.4257
  4.039  42.5596
  4.036  42.7450
  4.032  42.9510
  4.029  43.0437
  4.026  43.1467
  4.023  43.3012
  4.020  43.4660
  4.017  43.6411
  4.014  43.8059
  4.011  43.8883
  4.008  44.0016
  4.004  44.0943
  4.001  44.1664
  3.998  44.2797
  3.995  44.3724
  3.992  44.4342
  3.989  44.4342
  3.986  44.4445
  3.983  44.5475
  3.980  44.6196
  3.977  44.7432
  3.974  44.8050
  3.971  44.8565
  3.968  44.9389
  3.965  45.0419
  3.962  45.1243
  3.959  45.2170
  3.956  45.2891
  3.953  45.3303
  3.950  45.3303
  3.947  45.3715
  3.944  45.4642
  3.941  45.5260
  3.938  45.4642
  3.935  45.4024
  3.932  45.3509
  3.929  45.3509
  3.926  45.3200
  3.923  45.3200
  3.920  45.3612
  3.917  45.4333
  3.914  45.5466
  3.911  45.6393
  3.908  45.5569
  3.905  45.5775
  3.902  45.6393
  3.899  45.6393
  3.896  45.5775
  3.893  45.5569
  3.890  45.4745
  3.887  45.5054
  3.884  45.5466
  3.882  45.5466
  3.879  45.5775
  3.876  45.5672
  3.873  45.4951
  3.870  45.4230
  3.867  45.3406
  3.864  45.2273
  3.861  44.9595
  3.858  44.6402
  3.856  44.3724
  3.853  44.2488
  3.850  44.1561
  3.847  44.1561
  3.844  44.2591
  3.841  44.3827
  3.838  44.4548
  3.836  44.5475
  3.833  44.6814
  3.830  44.8256
  3.827  44.9595
  3.824  45.1243
  3.822  45.2582
  3.819  45.3097
  3.816  45.1964
  3.813  45.0419
  3.810  44.8771
  3.807  44.7020
  3.805  44.5681
  3.802  44.5269
  3.799  44.6299
  3.796  44.8050
  3.794  45.0007
  3.791  45.2273
  3.788  45.3509
  3.785  45.3612
  3.782  45.2994
  3.780  45.3303
  3.777  45.3612
  3.774  45.3715
  3.771  45.3715
  3.769  45.3715
  3.766  45.4436
  3.763  45.5569
  3.761  45.5672
  3.758  45.6084
  3.755  45.6805
  3.752  45.7011
  3.750  45.7320
  3.747  45.8041
  3.744  45.8247
  3.742  45.8762
  3.739  45.9380
  3.736  45.9792
  3.733  45.9483
  3.731  45.9689
  3.728  45.9689
  3.725  45.9483
  3.723  45.9483
  3.720  45.9483
  3.717  45.9071
  3.715  45.8247
  3.712  45.7320
  3.709  45.6496
  3.707  45.5878
  3.704  45.5466
  3.702  45.5054
  3.699  45.4642
  3.696  45.2273
  3.694  45.0625
  3.691  45.0007
  3.688  44.8977
  3.686  44.7638
  3.683  44.6814
  3.680  44.6196
  3.678  44.5475
  3.675  44.4754
  3.673  44.4033
  3.670  44.2797
  3.667  44.1973
  3.665  44.1252
  3.662  44.1355
  3.660  44.0531
  3.657  43.9810
  3.655  43.9604
  3.652  43.8574
  3.649  43.7750
  3.647  43.6823
  3.644  43.5381
  3.642  43.5793
  3.639  43.6411
  3.637  43.5690
  3.634  43.4660
  3.632  43.3836
  3.629  43.3321
  3.626  43.3218
  3.624  43.1776
  3.621  43.1158
  3.619  43.0849
  3.616  43.0231
  3.614  42.8686
  3.611  42.7656
  3.609  42.7038
  3.606  42.6317
  3.604  42.5390
  3.601  42.4154
  3.599  42.3536
  3.596  42.3124
  3.594  42.1476
  3.591  41.9622
  3.589  41.8386
  3.586  41.7871
  3.584  41.7047
  3.581  41.5193
  3.579  41.3545
