Name:  Dolomite  CaMgCO3
Type:  Rock
Class:  Sedimentary
Subclass: dolomite 
Particle Size:  Whole rock chips
Sample No.:  ro368
Owner:  Larry Rowan, USGS
Wavelength range:  VNIR SWIR IR
Origin:  Ronda, Spain

Description: bluish gray dolomite





Measurement:  Reflectance
First Column:  X
Second Column:  Y
X Units:  Wavelength (micrometers)
Y Units:  Reflectance (percent)
First X Value:  0.4
Last X Value:  14.01309
Number of X Values:  2826
Additional Information:  dm368a.txt

0.4	        .363000
0.401	        .363000
0.402	        .361000
0.403	        .364000
0.404	        .368000
0.405	        .369000
0.406	        .368000
0.407	        .365000
0.408	        .370000
0.409	        .370000
0.41	        .371000
0.411	        .368000
0.412	        .371000
0.413	        .371000
0.414	        .371000
0.415	        .372000
0.416	        .375000
0.417	        .372000
0.418	        .372000
0.419	        .376000
0.42	        .377000
0.421	        .376000
0.422	        .377000
0.423	        .377000
0.424	        .377000
0.425	        .382000
0.426	        .383000
0.427	        .382000
0.428	        .383000
0.429	        .385000
0.43	        .387000
0.431	        .389000
0.432	        .388000
0.433	        .388000
0.434	        .387000
0.435	        .388000
0.436	        .392000
0.437	        .394000
0.438	        .392000
0.439	        .397000
0.44	        .397000
0.441	        .396000
0.442	        .393000
0.443	        .397000
0.444	        .396000
0.445	        .399000
0.446	        .399000
0.447	        .402000
0.448	        .400000
0.449	        .402000
0.45	        .399000
0.451	        .398000
0.452	        .399000
0.453	        .402000
0.454	        .403000
0.455	        .404000
0.456	        .405000
0.457	        .400000
0.458	        .402000
0.459	        .403000
0.46	        .405000
0.461	        .403000
0.462	        .407000
0.463	        .402000
0.464	        .403000
0.465	        .404000
0.466	        .405000
0.467	        .403000
0.468	        .408000
0.469	        .408000
0.47	        .405000
0.471	        .405000
0.472	        .408000
0.473	        .407000
0.474	        .409000
0.475	        .408000
0.476	        .408000
0.477	        .408000
0.478	        .410000
0.479	        .414000
0.48	        .413000
0.481	        .414000
0.482	        .415000
0.483	        .413000
0.484	        .411000
0.485	        .418000
0.486	        .419000
0.487	        .414000
0.488	        .413000
0.489	        .414000
0.49	        .418000
0.491	        .418000
0.492	        .416000
0.493	        .418000
0.494	        .425000
0.495	        .424000
0.496	        .424000
0.497	        .427000
0.498	        .426000
0.499	        .426000
0.5	        .426000
0.501	        .425000
0.502	        .431000
0.503	        .429000
0.504	        .430000
0.505	        .427000
0.506	        .426000
0.507	        .430000
0.508	        .432000
0.509	        .433000
0.51	        .431000
0.511	        .426000
0.512	        .430000
0.513	        .436000
0.514	        .440000
0.515	        .436000
0.516	        .431000
0.517	        .436000
0.518	        .438000
0.519	        .437000
0.52	        .433000
0.521	        .437000
0.522	        .440000
0.523	        .443000
0.524	        .446000
0.525	        .444000
0.526	        .443000
0.527	        .443000
0.528	        .444000
0.529	        .449000
0.53	        .451000
0.531	        .453000
0.532	        .452000
0.533	        .452000
0.534	        .451000
0.535	        .451000
0.536	        .451000
0.537	        .452000
0.538	        .449000
0.539	        .452000
0.54	        .453000
0.541	        .454000
0.542	        .457000
0.543	        .453000
0.544	        .453000
0.545	        .458000
0.546	        .455000
0.547	        .460000
0.548	        .459000
0.549	        .459000
0.55	        .459000
0.551	        .460000
0.552	        .460000
0.553	        .462000
0.554	        .464000
0.555	        .464000
0.556	        .465000
0.557	        .463000
0.558	        .463000
0.559	        .458000
0.56	        .459000
0.561	        .462000
0.562	        .462000
0.563	        .462000
0.564	        .463000
0.565	        .460000
0.566	        .462000
0.567	        .462000
0.568	        .462000
0.569	        .460000
0.57	        .462000
0.571	        .464000
0.572	        .466000
0.573	        .462000
0.574	        .462000
0.575	        .462000
0.576	        .462000
0.577	        .463000
0.578	        .464000
0.579	        .466000
0.58	        .471000
0.581	        .473000
0.582	        .474000
0.583	        .473000
0.584	        .473000
0.585	        .470000
0.586	        .474000
0.587	        .474000
0.588	        .473000
0.589	        .469000
0.59	        .474000
0.591	        .481000
0.592	        .477000
0.593	        .476000
0.594	        .474000
0.595	        .477000
0.596	        .471000
0.597	        .468000
0.598	        .474000
0.599	        .475000
0.6	        .479000
0.601	        .480000
0.602	        .480000
0.603	        .481000
0.604	        .480000
0.605	        .479000
0.606	        .479000
0.607	        .479000
0.608	        .477000
0.609	        .480000
0.61	        .479000
0.611	        .480000
0.612	        .480000
0.613	        .479000
0.614	        .476000
0.615	        .474000
0.616	        .474000
0.617	        .476000
0.618	        .479000
0.619	        .480000
0.62	        .482000
0.621	        .480000
0.622	        .480000
0.623	        .484000
0.624	        .482000
0.625	        .481000
0.626	        .485000
0.627	        .486000
0.628	        .485000
0.629	        .485000
0.63	        .486000
0.631	        .485000
0.632	        .486000
0.633	        .487000
0.634	        .486000
0.635	        .485000
0.636	        .481000
0.637	        .482000
0.638	        .486000
0.639	        .485000
0.64	        .486000
0.641	        .488000
0.642	        .490000
0.643	        .488000
0.644	        .487000
0.645	        .488000
0.646	        .488000
0.647	        .493000
0.648	        .490000
0.649	        .488000
0.65	        .487000
0.651	        .486000
0.652	        .492000
0.653	        .492000
0.654	        .493000
0.655	        .495000
0.656	        .493000
0.657	        .496000
0.658	        .497000
0.659	        .495000
0.66	        .496000
0.661	        .502000
0.662	        .498000
0.663	        .496000
0.664	        .499000
0.665	        .497000
0.666	        .499000
0.667	        .497000
0.668	        .501000
0.669	        .501000
0.67	        .499000
0.671	        .499000
0.672	        .499000
0.673	        .501000
0.674	        .504000
0.675	        .502000
0.676	        .508000
0.677	        .507000
0.678	        .502000
0.679	        .508000
0.68	        .509000
0.681	        .510000
0.682	        .509000
0.683	        .507000
0.684	        .508000
0.685	        .508000
0.686	        .507000
0.687	        .509000
0.688	        .508000
0.689	        .508000
0.69	        .509000
0.691	        .509000
0.692	        .508000
0.693	        .509000
0.694	        .513000
0.695	        .513000
0.696	        .515000
0.697	        .518000
0.698	        .518000
0.699	        .515000
0.7	        .513000
0.701	        .515000
0.702	        .515000
0.703	        .516000
0.704	        .516000
0.705	        .514000
0.706	        .516000
0.707	        .519000
0.708	        .519000
0.709	        .518000
0.71	        .519000
0.711	        .519000
0.712	        .520000
0.713	        .520000
0.714	        .518000
0.715	        .521000
0.716	        .521000
0.717	        .520000
0.718	        .521000
0.719	        .523000
0.72	        .521000
0.721	        .523000
0.722	        .521000
0.723	        .524000
0.724	        .524000
0.725	        .524000
0.726	        .526000
0.727	        .525000
0.728	        .526000
0.729	        .526000
0.73	        .525000
0.731	        .527000
0.732	        .527000
0.733	        .529000
0.734	        .529000
0.735	        .530000
0.736	        .527000
0.737	        .527000
0.738	        .527000
0.739	        .530000
0.74	        .534000
0.741	        .531000
0.742	        .534000
0.743	        .529000
0.744	        .526000
0.745	        .529000
0.746	        .532000
0.747	        .534000
0.748	        .531000
0.749	        .530000
0.75	        .531000
0.751	        .534000
0.752	        .534000
0.753	        .535000
0.754	        .531000
0.755	        .527000
0.756	        .530000
0.757	        .532000
0.758	        .536000
0.759	        .535000
0.76	        .535000
0.761	        .536000
0.762	        .536000
0.763	        .535000
0.764	        .537000
0.765	        .536000
0.766	        .540000
0.767	        .540000
0.768	        .540000
0.769	        .538000
0.77	        .537000
0.771	        .538000
0.772	        .545000
0.773	        .542000
0.774	        .538000
0.775	        .540000
0.776	        .535000
0.777	        .538000
0.778	        .543000
0.779	        .538000
0.78	        .537000
0.781	        .537000
0.782	        .540000
0.783	        .541000
0.784	        .541000
0.785	        .537000
0.786	        .538000
0.787	        .540000
0.788	        .543000
0.789	        .538000
0.79	        .540000
0.791	        .541000
0.792	        .540000
0.793	        .538000
0.794	        .538000
0.795	        .540000
0.796	        .545000
0.797	        .543000
0.798	        .542000
0.799	        .542000
0.8	        .551000
0.804	        .551000
0.808	        .548000
0.812	        .551000
0.816	        .552000
0.82	        .549000
0.824	        .551000
0.828	        .551000
0.832	        .549000
0.836	        .554000
0.84	        .552000
0.844	        .552000
0.848	        .552000
0.852	        .553000
0.856	        .551000
0.86	        .551000
0.864	        .553000
0.868	        .553000
0.872	        .556000
0.876	        .556000
0.88	        .552000
0.884	        .553000
0.888	        .557000
0.892	        .552000
0.896	        .556000
0.9	        .554000
0.904	        .553000
0.908	        .554000
0.912	        .554000
0.916	        .554000
0.92	        .557000
0.924	        .554000
0.928	        .557000
0.932	        .552000
0.936	        .553000
0.94	        .553000
0.944	        .552000
0.948	        .549000
0.952	        .553000
0.956	        .554000
0.96	        .552000
0.964	        .554000
0.968	        .557000
0.972	        .556000
0.976	        .557000
0.98	        .558000
0.984	        .560000
0.988	        .562000
0.992	        .557000
0.996	        .559000
1	        .562000
1.004	        .559000
1.008	        .560000
1.012	        .560000
1.016	        .564000
1.02	        .562000
1.024	        .562000
1.028	        .557000
1.032	        .560000
1.036	        .563000
1.04	        .563000
1.044	        .559000
1.048	        .563000
1.052	        .562000
1.056	        .564000
1.06	        .568000
1.064	        .567000
1.068	        .570000
1.072	        .571000
1.076	        .569000
1.08	        .574000
1.084	        .575000
1.088	        .575000
1.092	        .578000
1.096	        .576000
1.1	        .578000
1.104	        .580000
1.108	        .581000
1.112	        .578000
1.116	        .578000
1.12	        .579000
1.124	        .579000
1.128	        .580000
1.132	        .585000
1.136	        .584000
1.14	        .586000
1.144	        .581000
1.148	        .580000
1.152	        .585000
1.156	        .586000
1.16	        .587000
1.164	        .589000
1.168	        .587000
1.172	        .586000
1.176	        .587000
1.18	        .586000
1.184	        .585000
1.188	        .587000
1.192	        .585000
1.196	        .585000
1.2	        .586000
1.204	        .586000
1.208	        .585000
1.212	        .586000
1.216	        .590000
1.22	        .589000
1.224	        .590000
1.228	        .590000
1.232	        .590000
1.236	        .587000
1.24	        .586000
1.244	        .591000
1.248	        .591000
1.252	        .591000
1.256	        .591000
1.26	        .590000
1.264	        .586000
1.268	        .589000
1.272	        .590000
1.276	        .592000
1.28	        .596000
1.284	        .597000
1.288	        .597000
1.292	        .596000
1.296	        .596000
1.3	        .597000
1.304	        .597000
1.308	        .595000
1.312	        .597000
1.316	        .598000
1.32	        .601000
1.324	        .601000
1.328	        .598000
1.332	        .598000
1.336	        .595000
1.34	        .593000
1.344	        .591000
1.348	        .590000
1.352	        .590000
1.356	        .587000
1.36	        .586000
1.364	        .586000
1.368	        .584000
1.372	        .570000
1.376	        .563000
1.38	        .559000
1.384	        .553000
1.388	        .551000
1.392	        .543000
1.396	        .540000
1.4	        .535000
1.404	        .529000
1.408	        .525000
1.412	        .526000
1.416	        .523000
1.42	        .521000
1.424	        .518000
1.428	        .516000
1.432	        .516000
1.436	        .516000
1.44	        .518000
1.444	        .519000
1.448	        .520000
1.452	        .521000
1.456	        .523000
1.46	        .525000
1.464	        .529000
1.468	        .529000
1.472	        .531000
1.476	        .534000
1.48	        .536000
1.484	        .540000
1.488	        .545000
1.492	        .547000
1.496	        .549000
1.5	        .552000
1.504	        .556000
1.508	        .557000
1.512	        .559000
1.516	        .562000
1.52	        .564000
1.524	        .565000
1.528	        .565000
1.532	        .567000
1.536	        .571000
1.54	        .575000
1.544	        .575000
1.548	        .573000
1.552	        .580000
1.556	        .580000
1.56	        .585000
1.564	        .586000
1.568	        .589000
1.572	        .585000
1.576	        .589000
1.58	        .590000
1.584	        .589000
1.588	        .589000
1.592	        .589000
1.596	        .590000
1.6	        .589000
1.604	        .590000
1.608	        .593000
1.612	        .593000
1.616	        .596000
1.62	        .595000
1.624	        .593000
1.628	        .591000
1.632	        .592000
1.636	        .591000
1.64	        .591000
1.644	        .595000
1.648	        .595000
1.652	        .598000
1.656	        .596000
1.66	        .595000
1.664	        .593000
1.668	        .592000
1.672	        .592000
1.676	        .592000
1.68	        .590000
1.684	        .586000
1.688	        .590000
1.692	        .591000
1.696	        .587000
1.7	        .589000
1.704	        .589000
1.708	        .586000
1.712	        .584000
1.716	        .580000
1.72	        .579000
1.724	        .581000
1.728	        .580000
1.732	        .579000
1.736	        .581000
1.74	        .580000
1.744	        .582000
1.748	        .582000
1.752	        .582000
1.756	        .584000
1.76	        .584000
1.764	        .584000
1.768	        .585000
1.772	        .582000
1.776	        .578000
1.78	        .575000
1.784	        .571000
1.788	        .570000
1.792	        .571000
1.796	        .570000
1.8	        .567000
1.804	        .558000
1.808	        .557000
1.812	        .557000
1.816	        .554000
1.82	        .549000
1.824	        .546000
1.828	        .542000
1.832	        .535000
1.836	        .530000
1.84	        .524000
1.844	        .520000
1.848	        .518000
1.852	        .513000
1.856	        .509000
1.86	        .501000
1.864	        .495000
1.868	        .490000
1.872	        .482000
1.876	        .476000
1.88	        .464000
1.884	        .449000
1.888	        .436000
1.892	        .420000
1.896	        .405000
1.9	        .398000
1.904	        .393000
1.908	        .394000
1.912	        .389000
1.916	        .389000
1.92	        .387000
1.924	        .385000
1.928	        .385000
1.932	        .385000
1.936	        .388000
1.94	        .391000
1.944	        .392000
1.948	        .394000
1.952	        .394000
1.956	        .397000
1.96	        .399000
1.964	        .403000
1.968	        .405000
1.972	        .408000
1.976	        .411000
1.98	        .415000
1.984	        .420000
1.988	        .425000
1.992	        .427000
1.996	        .435000
2	        .442000
2.004	        .449000
2.008	        .455000
2.012	        .462000
2.016	        .465000
2.02	        .466000
2.024	        .469000
2.028	        .473000
2.032	        .477000
2.036	        .479000
2.04	        .482000
2.044	        .484000
2.048	        .485000
2.052	        .487000
2.056	        .488000
2.06	        .493000
2.064	        .495000
2.068	        .493000
2.072	        .493000
2.076	        .497000
2.08	        .498000
2.084	        .498000
2.088	        .498000
2.092	        .497000
2.096	        .496000
2.1	        .495000
2.10043	        .524800
2.10128	        .524500
2.10213	        .526400
2.10298	        .524000
2.10383	        .523300
2.10469	        .527000
2.10554	        .529200
2.1064	        .530300
2.10725	        .526300
2.10811	        .520900
2.10897	        .518800
2.10983	        .518600
2.11068	        .522700
2.11154	        .520500
2.1124	        .518700
2.11327	        .518300
2.11413	        .518900
2.11499	        .521900
2.11585	        .525000
2.11672	        .522500
2.11758	        .518800
2.11844	        .513000
2.11931	        .513100
2.12018	        .516200
2.12104	        .519000
2.12191	        .514500
2.12278	        .514500
2.12365	        .513500
2.12452	        .508700
2.12539	        .506800
2.12626	        .512400
2.12713	        .513200
2.12801	        .510100
2.12888	        .504500
2.12975	        .504900
2.13063	        .506400
2.1315	        .505100
2.13238	        .502900
2.13326	        .505000
2.13414	        .503300
2.13501	        .500800
2.13589	        .503000
2.13677	        .504500
2.13765	        .504000
2.13854	        .506500
2.13942	        .507200
2.1403	        .503700
2.14118	        .497500
2.14207	        .497200
2.14295	        .495100
2.14384	        .497600
2.14473	        .500900
2.14561	        .500600
2.1465	        .497800
2.14739	        .495600
2.14828	        .499100
2.14917	        .502000
2.15006	        .500800
2.15095	        .501000
2.15185	        .499500
2.15274	        .499600
2.15363	        .500300
2.15453	        .502200
2.15542	        .502900
2.15632	        .503600
2.15722	        .507200
2.15811	        .511800
2.15901	        .511900
2.15991	        .511400
2.16081	        .510900
2.16171	        .508800
2.16261	        .508000
2.16352	        .506600
2.16442	        .506500
2.16532	        .510500
2.16623	        .514000
2.16713	        .513600
2.16804	        .511600
2.16894	        .512300
2.16985	        .512400
2.17076	        .514700
2.17167	        .516800
2.17258	        .516800
2.17349	        .516100
2.1744	        .516700
2.17531	        .515100
2.17623	        .514900
2.17714	        .514000
2.17805	        .513300
2.17897	        .511900
2.17989	        .512600
2.1808	        .514000
2.18172	        .514100
2.18264	        .512700
2.18356	        .513200
2.18448	        .509200
2.1854	        .509800
2.18632	        .513500
2.18724	        .512800
2.18816	        .508800
2.18909	        .504900
2.19001	        .500800
2.19094	        .503100
2.19186	        .504400
2.19279	        .506100
2.19372	        .504200
2.19464	        .501500
2.19557	        .497400
2.1965	        .496800
2.19743	        .498300
2.19837	        .498900
2.1993	        .497100
2.20023	        .496500
2.20116	        .491700
2.2021	        .488400
2.20303	        .486200
2.20397	        .484300
