Name:  Limestone CaCO3
Type:  Rock
Class: Sedimentary
Subclass: Limestone  
Particle Size:  Whole rock chips
Sample No.:  ro359
Owner:  Larry Rowan, USGS
Wavelength range:  VNIR SWIR IR
Origin:  Ronda, Spain

Description:  white limestone





Measurement:  Reflectance
First Column:  X
Second Column:  Y
X Units:  Wavelength (micrometers)
Y Units:  Reflectance (percent)
First X Value:  0.4
Last X Value:  14.01309
Number of X Values:  2826
Additional Information:  ls359a.txt

0.4	        .541000
0.401	        .541000
0.402	        .542000
0.403	        .543000
0.404	        .547000
0.405	        .546000
0.406	        .549000
0.407	        .551000
0.408	        .547000
0.409	        .549000
0.41	        .553000
0.411	        .558000
0.412	        .553000
0.413	        .554000
0.414	        .554000
0.415	        .558000
0.416	        .559000
0.417	        .560000
0.418	        .557000
0.419	        .562000
0.42	        .563000
0.421	        .564000
0.422	        .564000
0.423	        .565000
0.424	        .568000
0.425	        .570000
0.426	        .571000
0.427	        .570000
0.428	        .568000
0.429	        .571000
0.43	        .574000
0.431	        .573000
0.432	        .578000
0.433	        .575000
0.434	        .579000
0.435	        .580000
0.436	        .584000
0.437	        .581000
0.438	        .580000
0.439	        .586000
0.44	        .584000
0.441	        .582000
0.442	        .586000
0.443	        .581000
0.444	        .582000
0.445	        .586000
0.446	        .584000
0.447	        .581000
0.448	        .587000
0.449	        .592000
0.45	        .595000
0.451	        .585000
0.452	        .587000
0.453	        .590000
0.454	        .591000
0.455	        .591000
0.456	        .592000
0.457	        .591000
0.458	        .592000
0.459	        .595000
0.46	        .590000
0.461	        .589000
0.462	        .589000
0.463	        .593000
0.464	        .596000
0.465	        .592000
0.466	        .595000
0.467	        .595000
0.468	        .600000
0.469	        .600000
0.47	        .596000
0.471	        .597000
0.472	        .592000
0.473	        .595000
0.474	        .598000
0.475	        .602000
0.476	        .601000
0.477	        .601000
0.478	        .601000
0.479	        .601000
0.48	        .600000
0.481	        .604000
0.482	        .606000
0.483	        .604000
0.484	        .606000
0.485	        .609000
0.486	        .607000
0.487	        .606000
0.488	        .603000
0.489	        .603000
0.49	        .608000
0.491	        .609000
0.492	        .609000
0.493	        .609000
0.494	        .609000
0.495	        .608000
0.496	        .612000
0.497	        .614000
0.498	        .618000
0.499	        .619000
0.5	        .618000
0.501	        .614000
0.502	        .620000
0.503	        .618000
0.504	        .617000
0.505	        .615000
0.506	        .619000
0.507	        .623000
0.508	        .623000
0.509	        .615000
0.51	        .619000
0.511	        .620000
0.512	        .624000
0.513	        .632000
0.514	        .625000
0.515	        .621000
0.516	        .624000
0.517	        .629000
0.518	        .632000
0.519	        .623000
0.52	        .617000
0.521	        .625000
0.522	        .628000
0.523	        .631000
0.524	        .626000
0.525	        .619000
0.526	        .625000
0.527	        .631000
0.528	        .630000
0.529	        .635000
0.53	        .641000
0.531	        .641000
0.532	        .640000
0.533	        .639000
0.534	        .635000
0.535	        .628000
0.536	        .630000
0.537	        .635000
0.538	        .637000
0.539	        .634000
0.54	        .631000
0.541	        .635000
0.542	        .640000
0.543	        .636000
0.544	        .637000
0.545	        .635000
0.546	        .631000
0.547	        .636000
0.548	        .639000
0.549	        .639000
0.55	        .639000
0.551	        .642000
0.552	        .641000
0.553	        .642000
0.554	        .642000
0.555	        .641000
0.556	        .642000
0.557	        .645000
0.558	        .643000
0.559	        .641000
0.56	        .640000
0.561	        .640000
0.562	        .641000
0.563	        .639000
0.564	        .640000
0.565	        .641000
0.566	        .643000
0.567	        .645000
0.568	        .646000
0.569	        .650000
0.57	        .661000
0.571	        .657000
0.572	        .656000
0.573	        .656000
0.574	        .657000
0.575	        .658000
0.576	        .661000
0.577	        .662000
0.578	        .652000
0.579	        .654000
0.58	        .657000
0.581	        .652000
0.582	        .651000
0.583	        .652000
0.584	        .653000
0.585	        .657000
0.586	        .653000
0.587	        .654000
0.588	        .653000
0.589	        .658000
0.59	        .658000
0.591	        .657000
0.592	        .654000
0.593	        .658000
0.594	        .656000
0.595	        .657000
0.596	        .657000
0.597	        .657000
0.598	        .657000
0.599	        .663000
0.6	        .662000
0.601	        .652000
0.602	        .652000
0.603	        .652000
0.604	        .651000
0.605	        .652000
0.606	        .657000
0.607	        .654000
0.608	        .654000
0.609	        .656000
0.61	        .653000
0.611	        .652000
0.612	        .653000
0.613	        .658000
0.614	        .657000
0.615	        .661000
0.616	        .656000
0.617	        .656000
0.618	        .662000
0.619	        .658000
0.62	        .656000
0.621	        .659000
0.622	        .664000
0.623	        .664000
0.624	        .659000
0.625	        .656000
0.626	        .661000
0.627	        .662000
0.628	        .658000
0.629	        .658000
0.63	        .659000
0.631	        .664000
0.632	        .668000
0.633	        .669000
0.634	        .664000
0.635	        .664000
0.636	        .663000
0.637	        .665000
0.638	        .663000
0.639	        .663000
0.64	        .661000
0.641	        .665000
0.642	        .665000
0.643	        .665000
0.644	        .663000
0.645	        .659000
0.646	        .667000
0.647	        .667000
0.648	        .664000
0.649	        .663000
0.65	        .663000
0.651	        .662000
0.652	        .664000
0.653	        .664000
0.654	        .664000
0.655	        .668000
0.656	        .663000
0.657	        .667000
0.658	        .673000
0.659	        .676000
0.66	        .679000
0.661	        .675000
0.662	        .670000
0.663	        .665000
0.664	        .667000
0.665	        .672000
0.666	        .673000
0.667	        .669000
0.668	        .672000
0.669	        .674000
0.67	        .673000
0.671	        .669000
0.672	        .670000
0.673	        .674000
0.674	        .674000
0.675	        .668000
0.676	        .670000
0.677	        .676000
0.678	        .675000
0.679	        .674000
0.68	        .674000
0.681	        .676000
0.682	        .678000
0.683	        .675000
0.684	        .674000
0.685	        .678000
0.686	        .674000
0.687	        .674000
0.688	        .672000
0.689	        .673000
0.69	        .680000
0.691	        .675000
0.692	        .675000
0.693	        .676000
0.694	        .679000
0.695	        .679000
0.696	        .679000
0.697	        .681000
0.698	        .680000
0.699	        .680000
0.7	        .679000
0.701	        .680000
0.702	        .679000
0.703	        .680000
0.704	        .684000
0.705	        .684000
0.706	        .679000
0.707	        .681000
0.708	        .680000
0.709	        .679000
0.71	        .683000
0.711	        .685000
0.712	        .683000
0.713	        .681000
0.714	        .681000
0.715	        .681000
0.716	        .679000
0.717	        .679000
0.718	        .681000
0.719	        .681000
0.72	        .684000
0.721	        .687000
0.722	        .683000
0.723	        .681000
0.724	        .685000
0.725	        .683000
0.726	        .687000
0.727	        .687000
0.728	        .692000
0.729	        .687000
0.73	        .685000
0.731	        .683000
0.732	        .679000
0.733	        .681000
0.734	        .689000
0.735	        .690000
0.736	        .689000
0.737	        .690000
0.738	        .691000
0.739	        .691000
0.74	        .691000
0.741	        .695000
0.742	        .692000
0.743	        .689000
0.744	        .689000
0.745	        .691000
0.746	        .687000
0.747	        .686000
0.748	        .687000
0.749	        .690000
0.75	        .694000
0.751	        .695000
0.752	        .696000
0.753	        .695000
0.754	        .690000
0.755	        .689000
0.756	        .691000
0.757	        .687000
0.758	        .691000
0.759	        .694000
0.76	        .694000
0.761	        .690000
0.762	        .691000
0.763	        .695000
0.764	        .696000
0.765	        .692000
0.766	        .691000
0.767	        .687000
0.768	        .694000
0.769	        .695000
0.77	        .695000
0.771	        .694000
0.772	        .691000
0.773	        .697000
0.774	        .697000
0.775	        .698000
0.776	        .695000
0.777	        .697000
0.778	        .702000
0.779	        .697000
0.78	        .700000
0.781	        .696000
0.782	        .695000
0.783	        .691000
0.784	        .696000
0.785	        .690000
0.786	        .697000
0.787	        .701000
0.788	        .700000
0.789	        .697000
0.79	        .698000
0.791	        .694000
0.792	        .698000
0.793	        .700000
0.794	        .696000
0.795	        .698000
0.796	        .695000
0.797	        .695000
0.798	        .697000
0.799	        .697000
0.8	        .702000
0.804	        .706000
0.808	        .709000
0.812	        .708000
0.816	        .706000
0.82	        .701000
0.824	        .706000
0.828	        .707000
0.832	        .708000
0.836	        .708000
0.84	        .703000
0.844	        .708000
0.848	        .707000
0.852	        .708000
0.856	        .709000
0.86	        .707000
0.864	        .712000
0.868	        .711000
0.872	        .709000
0.876	        .713000
0.88	        .709000
0.884	        .707000
0.888	        .711000
0.892	        .709000
0.896	        .712000
0.9	        .712000
0.904	        .709000
0.908	        .711000
0.912	        .707000
0.916	        .705000
0.92	        .701000
0.924	        .705000
0.928	        .708000
0.932	        .707000
0.936	        .706000
0.94	        .706000
0.944	        .705000
0.948	        .703000
0.952	        .708000
0.956	        .703000
0.96	        .703000
0.964	        .702000
0.968	        .701000
0.972	        .705000
0.976	        .705000
0.98	        .700000
0.984	        .701000
0.988	        .705000
0.992	        .701000
0.996	        .700000
1	        .702000
1.004	        .703000
1.008	        .703000
1.012	        .698000
1.016	        .697000
1.02	        .700000
1.024	        .697000
1.028	        .700000
1.032	        .698000
1.036	        .701000
1.04	        .698000
1.044	        .697000
1.048	        .698000
1.052	        .700000
1.056	        .700000
1.06	        .702000
1.064	        .697000
1.068	        .696000
1.072	        .696000
1.076	        .696000
1.08	        .698000
1.084	        .700000
1.088	        .697000
1.092	        .697000
1.096	        .694000
1.1	        .695000
1.104	        .694000
1.108	        .696000
1.112	        .694000
1.116	        .696000
1.12	        .696000
1.124	        .695000
1.128	        .695000
1.132	        .698000
1.136	        .694000
1.14	        .696000
1.144	        .692000
1.148	        .696000
1.152	        .698000
1.156	        .697000
1.16	        .698000
1.164	        .700000
1.168	        .700000
1.172	        .697000
1.176	        .698000
1.18	        .696000
1.184	        .697000
1.188	        .696000
1.192	        .695000
1.196	        .696000
1.2	        .697000
1.204	        .698000
1.208	        .700000
1.212	        .702000
1.216	        .700000
1.22	        .695000
1.224	        .697000
1.228	        .698000
1.232	        .697000
1.236	        .697000
1.24	        .696000
1.244	        .698000
1.248	        .700000
1.252	        .703000
1.256	        .705000
1.26	        .706000
1.264	        .700000
1.268	        .695000
1.272	        .696000
1.276	        .697000
1.28	        .698000
1.284	        .696000
1.288	        .697000
1.292	        .696000
1.296	        .695000
1.3	        .695000
1.304	        .696000
1.308	        .695000
1.312	        .694000
1.316	        .694000
1.32	        .692000
1.324	        .691000
1.328	        .695000
1.332	        .692000
1.336	        .691000
1.34	        .690000
1.344	        .687000
1.348	        .684000
1.352	        .679000
1.356	        .680000
1.36	        .680000
1.364	        .675000
1.368	        .675000
1.372	        .665000
1.376	        .662000
1.38	        .656000
1.384	        .648000
1.388	        .640000
1.392	        .629000
1.396	        .624000
1.4	        .619000
1.404	        .615000
1.408	        .607000
1.412	        .606000
1.416	        .603000
1.42	        .601000
1.424	        .597000
1.428	        .596000
1.432	        .595000
1.436	        .593000
1.44	        .593000
1.444	        .595000
1.448	        .596000
1.452	        .597000
1.456	        .596000
1.46	        .593000
1.464	        .595000
1.468	        .600000
1.472	        .601000
1.476	        .604000
1.48	        .607000
1.484	        .612000
1.488	        .614000
1.492	        .618000
1.496	        .621000
1.5	        .628000
1.504	        .630000
1.508	        .630000
1.512	        .632000
1.516	        .639000
1.52	        .641000
1.524	        .643000
1.528	        .642000
1.532	        .643000
1.536	        .645000
1.54	        .645000
1.544	        .647000
1.548	        .646000
1.552	        .645000
1.556	        .645000
1.56	        .646000
1.564	        .651000
1.568	        .659000
1.572	        .659000
1.576	        .662000
1.58	        .663000
1.584	        .664000
1.588	        .663000
1.592	        .662000
1.596	        .665000
1.6	        .668000
1.604	        .665000
1.608	        .668000
1.612	        .667000
1.616	        .667000
1.62	        .669000
1.624	        .668000
1.628	        .667000
1.632	        .664000
1.636	        .663000
1.64	        .665000
1.644	        .665000
1.648	        .664000
1.652	        .665000
1.656	        .665000
1.66	        .667000
1.664	        .669000
1.668	        .668000
1.672	        .667000
1.676	        .665000
1.68	        .664000
1.684	        .661000
1.688	        .658000
1.692	        .659000
1.696	        .658000
1.7	        .657000
1.704	        .651000
1.708	        .650000
1.712	        .646000
1.716	        .640000
1.72	        .635000
1.724	        .636000
1.728	        .636000
1.732	        .635000
1.736	        .640000
1.74	        .639000
1.744	        .632000
1.748	        .635000
1.752	        .639000
1.756	        .641000
1.76	        .643000
1.764	        .648000
1.768	        .650000
1.772	        .647000
1.776	        .646000
1.78	        .646000
1.784	        .643000
1.788	        .643000
1.792	        .645000
1.796	        .645000
1.8	        .640000
1.804	        .635000
1.808	        .629000
1.812	        .630000
1.816	        .626000
1.82	        .615000
1.824	        .613000
1.828	        .604000
1.832	        .595000
1.836	        .591000
1.84	        .581000
1.844	        .579000
1.848	        .573000
1.852	        .559000
1.856	        .543000
1.86	        .526000
1.864	        .513000
1.868	        .508000
1.872	        .508000
1.876	        .510000
1.88	        .507000
1.884	        .496000
1.888	        .486000
1.892	        .474000
1.896	        .465000
1.9	        .457000
1.904	        .452000
1.908	        .448000
1.912	        .442000
1.916	        .441000
1.92	        .440000
1.924	        .437000
1.928	        .438000
1.932	        .435000
1.936	        .433000
1.94	        .435000
1.944	        .437000
1.948	        .438000
1.952	        .441000
1.956	        .442000
1.96	        .443000
1.964	        .444000
1.968	        .446000
1.972	        .443000
1.976	        .444000
1.98	        .442000
1.984	        .442000
1.988	        .447000
1.992	        .451000
1.996	        .460000
2	        .474000
2.004	        .484000
2.008	        .493000
2.012	        .501000
2.016	        .507000
2.02	        .514000
2.024	        .519000
2.028	        .521000
2.032	        .526000
2.036	        .531000
2.04	        .538000
2.044	        .548000
2.048	        .546000
2.052	        .548000
2.056	        .548000
2.06	        .549000
2.064	        .552000
2.068	        .552000
2.072	        .554000
2.076	        .556000
2.08	        .553000
2.084	        .557000
2.088	        .556000
2.092	        .553000
2.096	        .552000
2.1	        .551000
2.10043	        .571200
2.10128	        .568000
2.10213	        .569200
2.10298	        .569700
2.10383	        .569800
2.10469	        .574400
2.10554	        .571900
2.1064	        .566300
2.10725	        .566600
2.10811	        .568500
2.10897	        .566200
2.10983	        .565100
2.11068	        .567300
2.11154	        .566200
2.1124	        .563900
2.11327	        .568400
2.11413	        .568500
2.11499	        .568100
2.11585	        .569100
2.11672	        .564300
2.11758	        .564700
2.11844	        .563300
2.11931	        .561100
2.12018	        .560500
2.12104	        .561500
2.12191	        .565900
2.12278	        .568500
2.12365	        .564500
2.12452	        .559000
2.12539	        .558500
2.12626	        .558200
2.12713	        .554400
2.12801	        .555400
2.12888	        .559300
2.12975	        .557100
2.13063	        .556000
2.1315	        .553000
2.13238	        .553300
2.13326	        .558400
2.13414	        .557700
2.13501	        .551300
2.13589	        .554000
2.13677	        .555000
2.13765	        .552200
2.13854	        .550300
2.13942	        .544100
2.1403	        .538800
2.14118	        .537200
2.14207	        .535400
2.14295	        .533800
2.14384	        .532500
2.14473	        .531100
2.14561	        .527900
2.1465	        .524300
2.14739	        .523900
2.14828	        .523000
2.14917	        .518000
2.15006	        .517500
2.15095	        .517600
2.15185	        .518800
2.15274	        .520200
2.15363	        .518400
2.15453	        .513300
2.15542	        .514700
2.15632	        .519000
2.15722	        .520200
2.15811	        .518700
2.15901	        .515900
2.15991	        .518800
2.16081	        .524600
2.16171	        .522000
2.16261	        .520000
2.16352	        .519600
2.16442	        .521100
2.16532	        .524500
2.16623	        .526900
2.16713	        .528500
2.16804	        .529700
2.16894	        .531600
2.16985	        .534000
2.17076	        .533600
2.17167	        .536800
2.17258	        .538100
2.17349	        .540200
2.1744	        .539400
2.17531	        .537900
2.17623	        .539000
2.17714	        .542000
2.17805	        .543400
2.17897	        .546000
2.17989	        .545300
2.1808	        .543800
2.18172	        .544400
2.18264	        .546600
2.18356	        .549100
2.18448	        .553000
2.1854	        .552800
2.18632	        .552400
2.18724	        .549100
2.18816	        .548100
2.18909	        .548300
2.19001	        .548200
2.19094	        .548600
2.19186	        .551500
2.19279	        .553600
2.19372	        .550200
2.19464	        .547100
2.19557	        .546500
2.1965	        .551900
2.19743	        .555200
2.19837	        .550200
2.1993	        .545100
2.20023	        .543300
2.20116	        .542900
2.2021	        .541600
2.20303	        .541100
2.20397	        .539300
