Name:  Limestone CaCO3
Type:  Rock
Class: Sedimentary
Subclass: Limestone 
Particle Size:  Whole rock chips
Sample No.:  ro363
Owner:  Larry Rowan, USGS
Wavelength range:  VNIR SWIR IR
Origin:  Ronda, Spain

Description:  white limestone





Measurement:  Reflectance
First Column:  X
Second Column:  Y
X Units:  Wavelength (micrometers)
Y Units:  Reflectance (percent)
First X Value:  0.4
Last X Value:  14.01309
Number of X Values:  2826
Additional Information:  ls363a.txt

0.4	        .579000
0.401	        .578000
0.402	        .581000
0.403	        .586000
0.404	        .584000
0.405	        .580000
0.406	        .581000
0.407	        .586000
0.408	        .582000
0.409	        .581000
0.41	        .582000
0.411	        .581000
0.412	        .580000
0.413	        .586000
0.414	        .585000
0.415	        .585000
0.416	        .579000
0.417	        .582000
0.418	        .584000
0.419	        .584000
0.42	        .582000
0.421	        .586000
0.422	        .587000
0.423	        .589000
0.424	        .587000
0.425	        .587000
0.426	        .589000
0.427	        .589000
0.428	        .592000
0.429	        .591000
0.43	        .592000
0.431	        .591000
0.432	        .592000
0.433	        .593000
0.434	        .592000
0.435	        .593000
0.436	        .592000
0.437	        .592000
0.438	        .595000
0.439	        .592000
0.44	        .597000
0.441	        .592000
0.442	        .595000
0.443	        .595000
0.444	        .592000
0.445	        .600000
0.446	        .597000
0.447	        .592000
0.448	        .593000
0.449	        .597000
0.45	        .597000
0.451	        .596000
0.452	        .593000
0.453	        .596000
0.454	        .597000
0.455	        .596000
0.456	        .598000
0.457	        .601000
0.458	        .602000
0.459	        .591000
0.46	        .595000
0.461	        .597000
0.462	        .598000
0.463	        .597000
0.464	        .600000
0.465	        .595000
0.466	        .600000
0.467	        .597000
0.468	        .600000
0.469	        .598000
0.47	        .598000
0.471	        .598000
0.472	        .593000
0.473	        .598000
0.474	        .602000
0.475	        .598000
0.476	        .598000
0.477	        .595000
0.478	        .601000
0.479	        .598000
0.48	        .596000
0.481	        .601000
0.482	        .601000
0.483	        .596000
0.484	        .597000
0.485	        .603000
0.486	        .595000
0.487	        .596000
0.488	        .595000
0.489	        .600000
0.49	        .600000
0.491	        .596000
0.492	        .598000
0.493	        .601000
0.494	        .602000
0.495	        .596000
0.496	        .604000
0.497	        .606000
0.498	        .602000
0.499	        .602000
0.5	        .604000
0.501	        .608000
0.502	        .608000
0.503	        .602000
0.504	        .602000
0.505	        .601000
0.506	        .602000
0.507	        .604000
0.508	        .601000
0.509	        .600000
0.51	        .598000
0.511	        .598000
0.512	        .597000
0.513	        .601000
0.514	        .602000
0.515	        .592000
0.516	        .598000
0.517	        .602000
0.518	        .603000
0.519	        .606000
0.52	        .604000
0.521	        .603000
0.522	        .604000
0.523	        .603000
0.524	        .601000
0.525	        .602000
0.526	        .602000
0.527	        .604000
0.528	        .604000
0.529	        .606000
0.53	        .609000
0.531	        .609000
0.532	        .608000
0.533	        .608000
0.534	        .603000
0.535	        .601000
0.536	        .606000
0.537	        .604000
0.538	        .604000
0.539	        .601000
0.54	        .602000
0.541	        .597000
0.542	        .602000
0.543	        .596000
0.544	        .600000
0.545	        .608000
0.546	        .606000
0.547	        .600000
0.548	        .602000
0.549	        .602000
0.55	        .603000
0.551	        .604000
0.552	        .602000
0.553	        .602000
0.554	        .602000
0.555	        .597000
0.556	        .598000
0.557	        .602000
0.558	        .597000
0.559	        .606000
0.56	        .607000
0.561	        .606000
0.562	        .604000
0.563	        .603000
0.564	        .602000
0.565	        .606000
0.566	        .606000
0.567	        .607000
0.568	        .607000
0.569	        .604000
0.57	        .606000
0.571	        .604000
0.572	        .608000
0.573	        .606000
0.574	        .609000
0.575	        .609000
0.576	        .608000
0.577	        .611000
0.578	        .607000
0.579	        .608000
0.58	        .612000
0.581	        .609000
0.582	        .609000
0.583	        .603000
0.584	        .606000
0.585	        .603000
0.586	        .607000
0.587	        .604000
0.588	        .608000
0.589	        .607000
0.59	        .607000
0.591	        .607000
0.592	        .608000
0.593	        .608000
0.594	        .608000
0.595	        .608000
0.596	        .608000
0.597	        .608000
0.598	        .611000
0.599	        .608000
0.6	        .606000
0.601	        .606000
0.602	        .606000
0.603	        .604000
0.604	        .606000
0.605	        .607000
0.606	        .604000
0.607	        .604000
0.608	        .601000
0.609	        .603000
0.61	        .606000
0.611	        .606000
0.612	        .608000
0.613	        .606000
0.614	        .603000
0.615	        .604000
0.616	        .601000
0.617	        .600000
0.618	        .604000
0.619	        .602000
0.62	        .602000
0.621	        .602000
0.622	        .601000
0.623	        .603000
0.624	        .597000
0.625	        .604000
0.626	        .606000
0.627	        .604000
0.628	        .602000
0.629	        .603000
0.63	        .603000
0.631	        .602000
0.632	        .604000
0.633	        .606000
0.634	        .602000
0.635	        .608000
0.636	        .607000
0.637	        .604000
0.638	        .607000
0.639	        .608000
0.64	        .603000
0.641	        .602000
0.642	        .602000
0.643	        .604000
0.644	        .606000
0.645	        .601000
0.646	        .603000
0.647	        .606000
0.648	        .608000
0.649	        .606000
0.65	        .603000
0.651	        .604000
0.652	        .607000
0.653	        .609000
0.654	        .606000
0.655	        .606000
0.656	        .604000
0.657	        .606000
0.658	        .607000
0.659	        .608000
0.66	        .608000
0.661	        .604000
0.662	        .600000
0.663	        .606000
0.664	        .607000
0.665	        .603000
0.666	        .603000
0.667	        .608000
0.668	        .611000
0.669	        .607000
0.67	        .603000
0.671	        .604000
0.672	        .603000
0.673	        .608000
0.674	        .604000
0.675	        .602000
0.676	        .607000
0.677	        .607000
0.678	        .609000
0.679	        .611000
0.68	        .609000
0.681	        .606000
0.682	        .606000
0.683	        .601000
0.684	        .607000
0.685	        .606000
0.686	        .602000
0.687	        .602000
0.688	        .606000
0.689	        .604000
0.69	        .606000
0.691	        .606000
0.692	        .603000
0.693	        .603000
0.694	        .607000
0.695	        .607000
0.696	        .608000
0.697	        .612000
0.698	        .621000
0.699	        .602000
0.7	        .606000
0.701	        .606000
0.702	        .607000
0.703	        .609000
0.704	        .608000
0.705	        .606000
0.706	        .603000
0.707	        .603000
0.708	        .609000
0.709	        .609000
0.71	        .609000
0.711	        .609000
0.712	        .608000
0.713	        .609000
0.714	        .602000
0.715	        .603000
0.716	        .604000
0.717	        .606000
0.718	        .606000
0.719	        .607000
0.72	        .608000
0.721	        .608000
0.722	        .609000
0.723	        .606000
0.724	        .609000
0.725	        .608000
0.726	        .608000
0.727	        .608000
0.728	        .609000
0.729	        .607000
0.73	        .606000
0.731	        .607000
0.732	        .606000
0.733	        .608000
0.734	        .607000
0.735	        .607000
0.736	        .609000
0.737	        .609000
0.738	        .608000
0.739	        .611000
0.74	        .609000
0.741	        .608000
0.742	        .607000
0.743	        .607000
0.744	        .608000
0.745	        .608000
0.746	        .608000
0.747	        .609000
0.748	        .612000
0.749	        .608000
0.75	        .613000
0.751	        .609000
0.752	        .609000
0.753	        .608000
0.754	        .609000
0.755	        .611000
0.756	        .607000
0.757	        .608000
0.758	        .608000
0.759	        .611000
0.76	        .611000
0.761	        .618000
0.762	        .614000
0.763	        .612000
0.764	        .611000
0.765	        .609000
0.766	        .614000
0.767	        .612000
0.768	        .611000
0.769	        .609000
0.77	        .608000
0.771	        .609000
0.772	        .609000
0.773	        .613000
0.774	        .613000
0.775	        .609000
0.776	        .609000
0.777	        .612000
0.778	        .607000
0.779	        .608000
0.78	        .611000
0.781	        .613000
0.782	        .613000
0.783	        .612000
0.784	        .608000
0.785	        .607000
0.786	        .611000
0.787	        .614000
0.788	        .609000
0.789	        .612000
0.79	        .611000
0.791	        .615000
0.792	        .614000
0.793	        .612000
0.794	        .607000
0.795	        .607000
0.796	        .611000
0.797	        .609000
0.798	        .609000
0.799	        .609000
0.8	        .608000
0.804	        .609000
0.808	        .612000
0.812	        .613000
0.816	        .613000
0.82	        .608000
0.824	        .611000
0.828	        .613000
0.832	        .612000
0.836	        .615000
0.84	        .612000
0.844	        .609000
0.848	        .614000
0.852	        .613000
0.856	        .614000
0.86	        .612000
0.864	        .614000
0.868	        .614000
0.872	        .617000
0.876	        .618000
0.88	        .614000
0.884	        .615000
0.888	        .618000
0.892	        .617000
0.896	        .615000
0.9	        .620000
0.904	        .618000
0.908	        .617000
0.912	        .613000
0.916	        .617000
0.92	        .615000
0.924	        .618000
0.928	        .617000
0.932	        .618000
0.936	        .618000
0.94	        .618000
0.944	        .617000
0.948	        .619000
0.952	        .619000
0.956	        .617000
0.96	        .617000
0.964	        .619000
0.968	        .618000
0.972	        .620000
0.976	        .620000
0.98	        .620000
0.984	        .619000
0.988	        .621000
0.992	        .619000
0.996	        .623000
1	        .623000
1.004	        .625000
1.008	        .625000
1.012	        .625000
1.016	        .625000
1.02	        .620000
1.024	        .621000
1.028	        .621000
1.032	        .621000
1.036	        .625000
1.04	        .625000
1.044	        .626000
1.048	        .628000
1.052	        .626000
1.056	        .628000
1.06	        .628000
1.064	        .630000
1.068	        .629000
1.072	        .629000
1.076	        .628000
1.08	        .631000
1.084	        .630000
1.088	        .632000
1.092	        .630000
1.096	        .631000
1.1	        .628000
1.104	        .629000
1.108	        .629000
1.112	        .630000
1.116	        .632000
1.12	        .629000
1.124	        .631000
1.128	        .630000
1.132	        .630000
1.136	        .630000
1.14	        .630000
1.144	        .630000
1.148	        .631000
1.152	        .630000
1.156	        .634000
1.16	        .636000
1.164	        .635000
1.168	        .635000
1.172	        .634000
1.176	        .636000
1.18	        .637000
1.184	        .636000
1.188	        .636000
1.192	        .636000
1.196	        .636000
1.2	        .634000
1.204	        .631000
1.208	        .632000
1.212	        .632000
1.216	        .632000
1.22	        .632000
1.224	        .631000
1.228	        .631000
1.232	        .632000
1.236	        .630000
1.24	        .632000
1.244	        .631000
1.248	        .631000
1.252	        .634000
1.256	        .632000
1.26	        .632000
1.264	        .634000
1.268	        .629000
1.272	        .630000
1.276	        .635000
1.28	        .635000
1.284	        .634000
1.288	        .623000
1.292	        .629000
1.296	        .629000
1.3	        .625000
1.304	        .628000
1.308	        .629000
1.312	        .630000
1.316	        .628000
1.32	        .629000
1.324	        .629000
1.328	        .628000
1.332	        .628000
1.336	        .626000
1.34	        .628000
1.344	        .628000
1.348	        .625000
1.352	        .625000
1.356	        .624000
1.36	        .620000
1.364	        .618000
1.368	        .620000
1.372	        .619000
1.376	        .609000
1.38	        .603000
1.384	        .603000
1.388	        .596000
1.392	        .591000
1.396	        .581000
1.4	        .579000
1.404	        .576000
1.408	        .573000
1.412	        .570000
1.416	        .568000
1.42	        .567000
1.424	        .565000
1.428	        .562000
1.432	        .562000
1.436	        .560000
1.44	        .560000
1.444	        .560000
1.448	        .562000
1.452	        .560000
1.456	        .560000
1.46	        .560000
1.464	        .560000
1.468	        .562000
1.472	        .564000
1.476	        .565000
1.48	        .569000
1.484	        .573000
1.488	        .574000
1.492	        .578000
1.496	        .581000
1.5	        .582000
1.504	        .585000
1.508	        .587000
1.512	        .590000
1.516	        .591000
1.52	        .595000
1.524	        .595000
1.528	        .593000
1.532	        .595000
1.536	        .596000
1.54	        .595000
1.544	        .597000
1.548	        .595000
1.552	        .595000
1.556	        .593000
1.56	        .596000
1.564	        .598000
1.568	        .602000
1.572	        .603000
1.576	        .607000
1.58	        .606000
1.584	        .606000
1.588	        .608000
1.592	        .609000
1.596	        .612000
1.6	        .608000
1.604	        .608000
1.608	        .608000
1.612	        .607000
1.616	        .606000
1.62	        .604000
1.624	        .606000
1.628	        .603000
1.632	        .602000
1.636	        .602000
1.64	        .602000
1.644	        .602000
1.648	        .602000
1.652	        .601000
1.656	        .603000
1.66	        .604000
1.664	        .604000
1.668	        .607000
1.672	        .603000
1.676	        .600000
1.68	        .600000
1.684	        .597000
1.688	        .595000
1.692	        .593000
1.696	        .595000
1.7	        .592000
1.704	        .586000
1.708	        .586000
1.712	        .585000
1.716	        .581000
1.72	        .580000
1.724	        .580000
1.728	        .579000
1.732	        .578000
1.736	        .574000
1.74	        .570000
1.744	        .569000
1.748	        .573000
1.752	        .575000
1.756	        .578000
1.76	        .580000
1.764	        .584000
1.768	        .586000
1.772	        .584000
1.776	        .581000
1.78	        .587000
1.784	        .586000
1.788	        .582000
1.792	        .580000
1.796	        .580000
1.8	        .576000
1.804	        .574000
1.808	        .567000
1.812	        .564000
1.816	        .562000
1.82	        .554000
1.824	        .552000
1.828	        .548000
1.832	        .538000
1.836	        .530000
1.84	        .526000
1.844	        .523000
1.848	        .515000
1.852	        .504000
1.856	        .491000
1.86	        .480000
1.864	        .469000
1.868	        .460000
1.872	        .463000
1.876	        .468000
1.88	        .470000
1.884	        .465000
1.888	        .463000
1.892	        .455000
1.896	        .452000
1.9	        .443000
1.904	        .438000
1.908	        .437000
1.912	        .432000
1.916	        .426000
1.92	        .427000
1.924	        .425000
1.928	        .424000
1.932	        .424000
1.936	        .424000
1.94	        .424000
1.944	        .424000
1.948	        .424000
1.952	        .421000
1.956	        .420000
1.96	        .422000
1.964	        .422000
1.968	        .422000
1.972	        .419000
1.976	        .419000
1.98	        .419000
1.984	        .418000
1.988	        .418000
1.992	        .421000
1.996	        .430000
2	        .438000
2.004	        .449000
2.008	        .462000
2.012	        .469000
2.016	        .482000
2.02	        .486000
2.024	        .492000
2.028	        .496000
2.032	        .498000
2.036	        .498000
2.04	        .503000
2.044	        .505000
2.048	        .508000
2.052	        .510000
2.056	        .510000
2.06	        .514000
2.064	        .513000
2.068	        .515000
2.072	        .513000
2.076	        .516000
2.08	        .515000
2.084	        .515000
2.088	        .513000
2.092	        .512000
2.096	        .508000
2.1	        .504000
2.10043	        .524400
2.10128	        .525700
2.10213	        .525900
2.10298	        .523700
2.10383	        .524500
2.10469	        .524100
2.10554	        .523100
2.1064	        .523400
2.10725	        .524500
2.10811	        .518000
2.10897	        .513000
2.10983	        .510900
2.11068	        .510000
2.11154	        .509100
2.1124	        .510600
2.11327	        .510300
2.11413	        .511200
2.11499	        .512700
2.11585	        .514000
2.11672	        .508900
2.11758	        .506900
2.11844	        .504800
2.11931	        .505000
2.12018	        .504100
2.12104	        .503200
2.12191	        .501800
2.12278	        .502000
2.12365	        .500900
2.12452	        .503400
2.12539	        .503100
2.12626	        .504300
2.12713	        .503700
2.12801	        .500500
2.12888	        .497300
2.12975	        .495900
2.13063	        .496800
2.1315	        .496200
2.13238	        .495000
2.13326	        .492200
2.13414	        .486800
2.13501	        .488200
2.13589	        .490800
2.13677	        .491000
2.13765	        .486400
2.13854	        .480800
2.13942	        .475400
2.1403	        .475600
2.14118	        .472800
2.14207	        .467100
2.14295	        .459300
2.14384	        .458800
2.14473	        .458100
2.14561	        .453900
2.1465	        .449600
2.14739	        .450500
2.14828	        .452400
2.14917	        .451000
2.15006	        .447100
2.15095	        .443600
2.15185	        .444000
2.15274	        .442700
2.15363	        .442300
2.15453	        .443300
2.15542	        .441800
2.15632	        .441500
2.15722	        .441500
2.15811	        .443500
2.15901	        .441800
2.15991	        .441100
2.16081	        .443900
2.16171	        .445700
2.16261	        .445700
2.16352	        .447500
2.16442	        .448300
2.16532	        .451300
2.16623	        .452800
2.16713	        .451700
2.16804	        .450600
2.16894	        .454300
2.16985	        .457000
2.17076	        .458400
2.17167	        .463200
2.17258	        .469300
2.17349	        .467900
2.1744	        .465700
2.17531	        .468700
2.17623	        .471000
2.17714	        .470000
2.17805	        .472200
2.17897	        .474300
2.17989	        .472600
2.1808	        .474700
2.18172	        .478700
2.18264	        .478800
2.18356	        .479900
2.18448	        .480300
2.1854	        .480800
2.18632	        .481800
2.18724	        .481000
2.18816	        .479900
2.18909	        .481300
2.19001	        .483700
2.19094	        .483600
2.19186	        .481400
2.19279	        .481600
2.19372	        .481200
2.19464	        .480600
2.19557	        .476200
2.1965	        .475100
2.19743	        .476200
2.19837	        .475600
2.1993	        .473200
2.20023	        .472900
2.20116	        .471600
2.2021	        .471500
2.20303	        .469100
2.20397	        .468300
