Name: Rivadavite Na6MgB24O40 * 22H2O
Type: Mineral
Class: Borate
Subclass: None
Particle Size: Unsieved coarse powder
Sample No.: NMNH 170164
Owner: Smithsonian Institute, National Museum of Nat. History
Wavelength range: 0.40 - 14.05 um
Origin: Tinclayu, Salta, Argentina

Description: Rivadavite from Tinclayu, Salta, Argentina





Measurement: Directional Hemispherical Reflectance
First Column: X
Second Column: Y
X Units: Wavelength (micrometers)
Y Units: Reflectance (percent)
First X Value: 14.05105
Last X Value: 0.40000
Number of X Values: 2756
Additional Information: None

 14.051   4.5011
 14.013   4.1097
 13.975   4.0788
 13.938   3.9449
 13.900   3.9861
 13.863   3.7801
 13.826   3.8934
 13.790   3.9243
 13.753   3.9758
 13.717   3.9243
 13.680   3.9140
 13.644   3.9037
 13.609   4.0685
 13.573   4.0994
 13.538   4.2436
 13.502   4.2848
 13.467   4.4496
 13.432   4.5217
 13.398   4.6041
 13.363   4.6556
 13.329   4.7174
 13.295   4.7277
 13.261   4.9337
 13.227   5.0058
 13.193   5.1603
 13.160   5.2427
 13.126   5.3766
 13.093   5.4075
 13.060   5.6135
 13.027   5.6959
 12.995   5.8504
 12.962   5.9740
 12.930   6.1182
 12.898   6.2521
 12.866   6.5199
 12.834   6.6641
 12.802   6.8907
 12.771   7.0452
 12.739   7.3542
 12.708   7.6426
 12.677   8.0855
 12.646   8.4563
 12.616   9.0434
 12.585   9.5172
 12.554   9.7644
 12.524   9.6408
 12.494   9.1876
 12.464   8.4151
 12.434   7.9516
 12.404   7.7971
 12.375   8.1370
 12.345   8.7035
 12.316   9.5584
 12.287  10.4030
 12.258  10.9283
 12.229  10.7326
 12.200  10.3618
 12.171   9.8880
 12.143   9.0022
 12.115   7.2512
 12.086   5.4899
 12.058   4.3466
 12.030   3.9037
 12.002   3.6977
 11.975   3.6668
 11.947   3.7286
 11.920   3.8110
 11.892   3.8419
 11.865   4.0685
 11.838   4.1715
 11.811   4.3775
 11.784   4.5732
 11.757   4.8719
 11.731   5.0470
 11.704   5.2118
 11.678   5.2942
 11.652   5.4178
 11.626   5.4899
 11.600   5.7165
 11.574   5.8916
 11.548   5.9946
 11.522   6.0358
 11.497   6.1800
 11.471   5.9946
 11.446   5.6650
 11.421   5.2324
 11.396   4.8410
 11.371   4.2848
 11.346   3.9037
 11.321   3.5535
 11.297   3.3784
 11.272   3.3887
 11.248   3.4814
 11.223   3.4402
 11.199   3.5020
 11.175   3.6050
 11.151   3.7904
 11.127   3.9449
 11.103   4.1612
 11.079   4.2024
 11.056   4.2745
 11.032   4.2642
 11.009   4.3363
 10.985   4.3569
 10.962   4.3260
 10.939   4.0479
 10.916   3.8110
 10.893   3.6359
 10.870   3.6153
 10.848   3.6874
 10.825   3.9449
 10.802   4.0582
 10.780   4.2745
 10.758   4.4393
 10.735   4.6350
 10.713   4.7586
 10.691   4.9955
 10.669   5.1912
 10.647   5.3972
 10.625   5.5929
 10.604   5.9122
 10.582   6.2006
 10.560   6.4890
 10.539   6.8083
 10.518   7.3027
 10.496   7.8280
 10.475   8.5387
 10.454   9.4142
 10.433  10.4442
 10.412  11.1858
 10.391  11.2682
 10.370  10.0940
 10.350   8.3842
 10.329   7.1070
 10.309   6.5611
 10.288   6.0255
 10.268   5.4075
 10.247   4.8101
 10.227   4.4496
 10.207   4.2642
 10.187   4.2848
 10.167   4.2539
 10.147   4.3054
 10.127   4.4290
 10.108   4.6865
 10.088   4.9234
 10.068   5.1706
 10.049   5.3972
 10.029   5.6650
 10.010   5.7886
  9.991   5.9637
  9.972   6.1491
  9.952   6.3242
  9.933   6.4375
  9.914   6.5199
  9.895   6.4375
  9.877   6.4478
  9.858   6.4169
  9.839   6.4272
  9.821   6.4272
  9.802   6.5611
  9.783   6.4993
  9.765   6.5199
  9.747   6.5920
  9.728   6.6950
  9.710   6.7259
  9.692   6.8701
  9.674   6.9422
  9.656   7.0658
  9.638   7.1688
  9.620   7.2100
  9.602   7.2409
  9.585   7.4160
  9.567   7.4366
  9.549   7.4572
  9.532   7.4881
  9.514   7.6117
  9.497   7.6838
  9.479   7.9001
  9.462   8.1061
  9.445   8.3636
  9.428   8.5490
  9.411   8.7962
  9.394   8.8786
  9.377   8.9816
  9.360   9.0434
  9.343   9.1258
  9.326   9.1773
  9.309   9.5687
  9.293  10.0940
  9.276  10.6502
  9.259  11.1034
  9.243  11.7111
  9.226  12.2570
  9.210  12.7411
  9.194  13.1016
  9.178  13.3694
  9.161  13.4518
  9.145  13.5445
  9.129  13.3694
  9.113  13.0913
  9.097  12.7205
  9.081  12.3085
  9.065  11.7317
  9.049  11.2270
  9.034  10.6811
  9.018  10.2691
  9.002   9.8262
  8.987   9.4554
  8.971   9.0949
  8.956   8.8786
  8.940   8.6932
  8.925   8.4872
  8.909   8.1164
  8.894   7.9310
  8.879   7.7250
  8.864   7.5190
  8.849   7.2615
  8.834   7.0658
  8.819   6.8392
  8.804   6.7671
  8.789   6.7053
  8.774   6.8392
  8.759   6.9937
  8.744   7.2306
  8.730   7.3645
  8.715   7.4881
  8.700   7.5293
  8.686   7.6529
  8.671   7.6323
  8.657   7.5293
  8.642   7.3336
  8.628   7.1894
  8.614   6.8907
  8.599   6.5920
  8.585   6.1388
  8.571   5.6341
  8.557   5.0367
  8.543   4.5629
  8.529   4.1612
  8.515   3.9346
  8.501   3.7389
  8.487   3.7286
  8.473   3.7595
  8.459   3.8007
  8.445   3.7698
  8.431   3.8316
  8.418   3.8213
  8.404   3.8213
  8.391   3.7801
  8.377   3.8316
  8.363   3.9243
  8.350   4.0582
  8.337   4.0994
  8.323   4.2230
  8.310   4.3672
  8.297   4.5423
  8.283   4.5526
  8.270   4.5938
  8.257   4.5835
  8.244   4.6247
  8.231   4.5732
  8.218   4.5114
  8.205   4.4084
  8.192   4.2848
  8.179   4.1921
  8.166   4.2024
  8.153   4.1097
  8.140   4.0788
  8.128   4.0994
  8.115   4.1406
  8.102   4.0685
  8.090   4.0788
  8.077   4.0788
  8.064   4.0788
  8.052   3.9037
  8.039   3.6771
  8.027   3.5329
  8.015   3.4299
  8.002   3.2342
  7.990   3.0694
  7.978   2.8119
  7.965   2.5544
  7.953   2.3484
  7.941   2.2145
  7.929   2.0600
  7.917   1.9673
  7.905   1.8540
  7.893   1.8437
  7.881   1.8128
  7.869   1.8437
  7.857   1.8231
  7.845   1.8849
  7.833   1.9570
  7.821   2.0909
  7.809   2.1836
  7.798   2.2866
  7.786   2.3484
  7.774   2.4823
  7.763   2.6368
  7.751   2.8016
  7.739   2.8531
  7.728   3.0591
  7.716   3.2239
  7.705   3.3475
  7.694   3.4711
  7.682   3.5947
  7.671   3.5947
  7.659   3.6874
  7.648   3.6977
  7.637   3.6771
  7.626   3.6565
  7.614   3.7080
  7.603   3.6771
  7.592   3.7080
  7.581   3.7286
  7.570   3.8831
  7.559   4.0582
  7.548   4.2127
  7.537   4.3466
  7.526   4.5217
  7.515   4.6247
  7.504   4.7380
  7.493   4.9028
  7.483   5.1397
  7.472   5.4075
  7.461   5.7680
  7.450   6.1903
  7.440   6.6538
  7.429   6.9834
  7.418   7.1688
  7.408   7.2615
  7.397   7.4160
  7.387   7.5396
  7.376   7.7868
  7.366   8.1473
  7.355   8.7138
  7.345   9.4657
  7.334  10.3000
  7.324  11.0416
  7.314  11.7111
  7.303  12.1643
  7.293  12.3806
  7.283  12.3497
  7.273  12.0819
  7.263  11.4742
  7.252  10.6502
  7.242   9.7953
  7.232   8.9095
  7.222   7.9928
  7.212   7.2100
  7.202   6.6332
  7.192   6.1388
  7.182   5.6238
  7.172   5.2015
  7.162   4.7998
  7.152   4.4908
  7.143   4.1509
  7.133   3.8110
  7.123   3.5020
  7.113   3.3166
  7.103   3.2342
  7.094   3.2857
  7.084   3.3990
  7.074   3.5844
  7.065   3.7183
  7.055   3.9037
  7.046   4.1406
  7.036   4.2745
  7.026   4.2848
  7.017   4.2745
  7.007   4.2024
  6.998   4.2127
  6.989   4.2436
  6.979   4.3260
  6.970   4.4084
  6.960   4.5526
  6.951   4.7895
  6.942   5.0985
  6.932   5.4075
  6.923   5.7783
  6.914   6.1903
  6.905   6.6126
  6.896   6.9319
  6.886   7.2615
  6.877   7.5602
  6.868   7.7250
  6.859   7.7250
  6.850   7.3645
  6.841   6.7671
  6.832   6.1388
  6.823   5.4281
  6.814   4.6762
  6.805   3.9861
  6.796   3.4814
  6.787   3.0488
  6.778   2.6574
  6.770   2.3484
  6.761   2.1218
  6.752   1.9570
  6.743   1.8437
  6.734   1.7922
  6.726   1.8334
  6.717   1.8128
  6.708   1.7819
  6.700   1.7407
  6.691   1.6583
  6.682   1.5141
  6.674   1.4008
  6.665   1.2257
  6.657   1.0609
  6.648   0.8858
  6.640   0.7828
  6.631   0.7622
  6.623   0.7622
  6.614   0.7107
  6.606   0.6695
  6.597   0.5974
  6.589   0.5871
  6.581   0.6283
  6.572   0.6798
  6.564   0.6386
  6.556   0.5768
  6.547   0.5768
  6.539   0.6077
  6.531   0.5974
  6.523   0.5871
  6.514   0.5768
  6.506   0.5768
  6.498   0.6077
  6.490   0.6489
  6.482   0.6798
  6.474   0.7107
  6.466   0.7107
  6.458   0.7313
  6.450   0.7210
  6.442   0.7416
  6.434   0.7622
  6.426   0.7931
  6.418   0.8137
  6.410   0.8343
  6.402   0.7828
  6.394   0.7725
  6.386   0.7931
  6.378   0.8240
  6.370   0.8652
  6.363   0.9167
  6.355   0.9270
  6.347   0.9270
  6.339   0.8961
  6.332   0.8858
  6.324   0.8755
  6.316   0.9579
  6.308   0.9991
  6.301   0.9991
  6.293   1.0403
  6.286   1.0506
  6.278   1.0300
  6.270   1.0712
  6.263   1.0712
  6.255   1.0300
  6.248   0.9682
  6.240   1.0403
  6.233   1.0918
  6.225   1.1021
  6.218   1.1227
  6.210   1.1742
  6.203   1.1845
  6.195   1.1330
  6.188   1.1021
  6.181   1.1536
  6.173   1.1536
  6.166   1.0918
  6.159   1.1330
  6.151   1.2154
  6.144   1.1536
  6.137   1.1227
  6.130   1.1124
  6.122   1.1227
  6.115   1.1330
  6.108   1.1330
  6.101   1.1433
  6.094   1.2051
  6.086   1.2566
  6.079   1.2875
  6.072   1.3081
  6.065   1.2978
  6.058   1.2669
  6.051   1.2875
  6.044   1.3390
  6.037   1.3184
  6.030   1.2566
  6.023   1.2051
  6.016   1.1639
  6.009   1.1639
  6.002   1.1330
  5.995   1.1021
  5.988   1.1021
  5.981   1.1433
  5.974   1.1536
  5.967   1.1845
  5.960   1.2257
  5.954   1.2772
  5.947   1.3081
  5.940   1.3390
  5.933   1.3184
  5.926   1.2875
  5.920   1.2566
  5.913   1.2978
  5.906   1.3287
  5.899   1.3596
  5.893   1.3493
  5.886   1.3184
  5.879   1.2978
  5.873   1.3390
  5.866   1.2978
  5.859   1.3287
  5.853   1.3596
  5.846   1.3802
  5.840   1.3493
  5.833   1.3596
  5.827   1.3802
  5.820   1.3905
  5.813   1.4008
  5.807   1.4420
  5.800   1.4523
  5.794   1.4832
  5.788   1.4729
  5.781   1.5141
  5.775   1.5553
  5.768   1.5450
  5.762   1.5965
  5.755   1.6789
  5.749   1.6583
  5.743   1.6583
  5.736   1.6686
  5.730   1.6892
  5.724   1.6995
  5.717   1.6789
  5.711   1.6686
  5.705   1.7510
  5.698   1.7304
  5.692   1.7407
  5.686   1.7922
  5.680   1.8334
  5.674   1.8643
  5.667   1.8849
  5.661   1.8437
  5.655   1.8540
  5.649   1.8746
  5.643   1.8746
  5.637   1.8746
  5.630   1.8849
  5.624   1.8952
  5.618   1.9158
  5.612   1.9158
  5.606   1.9570
  5.600   1.9570
  5.594   1.9673
  5.588   1.9673
  5.582   1.9776
  5.576   2.0188
  5.570   2.0394
  5.564   2.0188
  5.558   2.0291
  5.552   2.0291
  5.546   2.0394
  5.540   2.0497
  5.534   2.0188
  5.528   2.0085
  5.523   2.0497
  5.517   2.0600
  5.511   2.0497
  5.505   2.0600
  5.499   2.1012
  5.493   2.1012
  5.487   2.0806
  5.482   2.0806
  5.476   2.1218
  5.470   2.1527
  5.464   2.1527
  5.459   2.1527
  5.453   2.1733
  5.447   2.2042
  5.441   2.2145
  5.436   2.2042
  5.430   2.2145
  5.424   2.2557
  5.419   2.2969
  5.413   2.2042
  5.407   2.2248
  5.402   2.2454
  5.396   2.2557
  5.390   2.2557
  5.385   2.2248
  5.379   2.2351
  5.374   2.2969
  5.368   2.2866
  5.363   2.3072
  5.357   2.3381
  5.352   2.3381
  5.346   2.3381
  5.341   2.3175
  5.335   2.2969
  5.330   2.3072
  5.324   2.3484
  5.319   2.3896
  5.313   2.3896
  5.308   2.3793
  5.302   2.3793
  5.297   2.4205
  5.291   2.3999
  5.286   2.4205
  5.281   2.4617
  5.275   2.4514
  5.270   2.4617
  5.265   2.4926
  5.259   2.5029
  5.254   2.4514
  5.249   2.4102
  5.243   2.4823
  5.238   2.5132
  5.233   2.5441
  5.227   2.5441
  5.222   2.5235
  5.217   2.5750
  5.212   2.6368
  5.206   2.5956
  5.201   2.5647
  5.196   2.5544
  5.191   2.5956
  5.186   2.6265
  5.180   2.6574
  5.175   2.6265
  5.170   2.6368
  5.165   2.6883
  5.160   2.7192
  5.155   2.6883
  5.150   2.7089
  5.145   2.7398
  5.139   2.7295
  5.134   2.7192
  5.129   2.7604
  5.124   2.7707
  5.119   2.7707
  5.114   2.7501
  5.109   2.7398
  5.104   2.6986
  5.099   2.6986
  5.094   2.7501
  5.089   2.7913
  5.084   2.8325
  5.079   2.8119
  5.074   2.7604
  5.069   2.7707
  5.064   2.7604
  5.059   2.7192
  5.054   2.7295
  5.049   2.7913
  5.044   2.8016
  5.040   2.8016
  5.035   2.8016
  5.030   2.8119
  5.025   2.7810
  5.020   2.8016
  5.015   2.8737
  5.010   2.8428
  5.005   2.8119
  5.001   2.8119
  4.996   2.8325
  4.991   2.8634
  4.986   2.8325
  4.981   2.8325
  4.977   2.8634
  4.972   2.8634
  4.967   2.8531
  4.962   2.8531
  4.958   2.8531
  4.953   2.8737
  4.948   2.9355
  4.943   2.9149
  4.939   2.8428
  4.934   2.8634
  4.929   2.9355
  4.925   2.9973
  4.920   2.9561
  4.915   2.9252
  4.911   2.9458
  4.906   2.9870
  4.901   2.9767
  4.897   2.9355
  4.892   2.9149
  4.888   2.9664
  4.883   2.9973
  4.878   2.9664
  4.874   2.9355
  4.869   2.9767
  4.865   3.0179
  4.860   2.9767
  4.856   2.9561
  4.851   2.9664
  4.846   2.9973
  4.842   3.0385
  4.837   3.0282
  4.833   3.0179
  4.828   3.0179
  4.824   3.0179
  4.819   3.0179
  4.815   3.0282
  4.810   3.0591
  4.806   3.1003
  4.802   3.0385
  4.797   3.0179
  4.793   3.0488
  4.788   3.0179
  4.784   3.0385
  4.779   3.0488
  4.775   3.0076
  4.771   2.9973
  4.766   3.0385
  4.762   3.0694
  4.758   3.0488
  4.753   3.0385
  4.749   3.0694
  4.744   3.0488
  4.740   3.0385
  4.736   3.0282
  4.731   3.0282
  4.727   2.9973
  4.723   3.0076
  4.719   2.9973
  4.714   2.9664
  4.710   3.0076
  4.706   3.0591
  4.701   3.0591
  4.697   3.0385
  4.693   2.9870
  4.689   2.9767
  4.684   2.9767
  4.680   2.9870
  4.676   3.0076
  4.672   3.0591
  4.668   3.1106
  4.663   3.1312
  4.659   3.1106
  4.655   3.0694
  4.651   3.0797
  4.647   3.0900
  4.643   3.1003
  4.638   3.0797
  4.634   3.0282
  4.630   3.1003
  4.626   3.1209
  4.622   3.0900
  4.618   3.0694
  4.614   3.1209
  4.610   3.1518
  4.605   3.1415
  4.601   3.1106
  4.597   3.1209
  4.593   3.1415
  4.589   3.1312
  4.585   3.1209
  4.581   3.1312
  4.577   3.1724
  4.573   3.1827
  4.569   3.1415
  4.565   3.1209
  4.561   3.1106
  4.557   3.1003
  4.553   3.1106
  4.549   3.1209
  4.545   3.1518
  4.541   3.1724
  4.537   3.1621
  4.533   3.1724
  4.529   3.2239
  4.525   3.2754
  4.521   3.2239
  4.517   3.2136
  4.513   3.2136
  4.509   3.2033
  4.505   3.1724
  4.502   3.2342
  4.498   3.2342
  4.494   3.1518
  4.490   3.1827
  4.486   3.2548
  4.482   3.2548
  4.478   3.2136
  4.474   3.1827
  4.470   3.1930
  4.467   3.2239
  4.463   3.2342
  4.459   3.2857
  4.455   3.2651
  4.451   3.2342
  4.447   3.2136
  4.444   3.2033
  4.440   3.2342
  4.436   3.2548
  4.432   3.2342
  4.428   3.1930
  4.425   3.1724
  4.421   3.1724
  4.417   3.1930
  4.413   3.2445
  4.410   3.2445
  4.406   3.2445
  4.402   3.2651
  4.398   3.2033
  4.395   3.1518
  4.391   3.0900
  4.387   3.0591
  4.384   3.1106
  4.380   3.1518
  4.376   3.1724
  4.372   3.1930
  4.369   3.2239
  4.365   3.2239
  4.361   3.1827
  4.358   3.1930
  4.354   3.1930
  4.350   3.2033
  4.347   3.2239
  4.343   3.1518
  4.340   3.1518
  4.336   3.2239
  4.332   3.2445
  4.329   3.2033
  4.325   3.1827
  4.321   3.2651
  4.318   3.2136
  4.314   3.1827
  4.311   3.2033
  4.307   3.2033
  4.304   3.2342
  4.300   3.2754
  4.296   3.2548
  4.293   3.1827
  4.289   3.1827
  4.286   3.2445
  4.282   3.2857
  4.279   3.3372
  4.275   3.3269
  4.272   3.2548
  4.268   3.1930
  4.265   3.1827
  4.261   3.2033
  4.258   3.1930
  4.254   3.2342
  4.251   3.2548
  4.247   3.1724
  4.244   3.1724
  4.240   3.1930
  4.237   3.2239
  4.233   3.1930
  4.230   3.1724
  4.226   3.2136
  4.223   3.2857
  4.219   3.2857
  4.216   3.2651
  4.213   3.2548
  4.209   3.2342
  4.206   3.2136
  4.202   3.2857
  4.199   3.2445
  4.196   3.1724
  4.192   3.1930
  4.189   3.2445
  4.185   3.2548
  4.182   3.2857
  4.179   3.2754
  4.175   3.2651
  4.172   3.2445
  4.169   3.2857
  4.165   3.3166
  4.162   3.3372
  4.159   3.2754
  4.155   3.3166
  4.152   3.3372
  4.149   3.2651
  4.145   3.2033
  4.142   3.2445
  4.139   3.3063
  4.135   3.3475
  4.132   3.3372
  4.129   3.3681
  4.126   3.3269
  4.122   3.3166
  4.119   3.2960
  4.116   3.3063
  4.112   3.3372
  4.109   3.3990
  4.106   3.3784
  4.103   3.3166
  4.099   3.2651
  4.096   3.3269
  4.093   3.3887
  4.090   3.4711
  4.086   3.4917
  4.083   3.4608
  4.080   3.4299
  4.077   3.4608
  4.074   3.4093
  4.070   3.3681
  4.067   3.4093
  4.064   3.4402
  4.061   3.5020
  4.058   3.5535
  4.055   3.4505
  4.051   3.4299
  4.048   3.4711
  4.045   3.5123
  4.042   3.4608
  4.039   3.4299
  4.036   3.4196
  4.032   3.4917
  4.029   3.5020
  4.026   3.4608
  4.023   3.4608
  4.020   3.5123
  4.017   3.4917
  4.014   3.4299
  4.011   3.4505
  4.008   3.5535
  4.004   3.4917
  4.001   3.4608
  3.998   3.5020
  3.995   3.5329
  3.992   3.4711
  3.989   3.4505
  3.986   3.4402
  3.983   3.4608
  3.980   3.5226
  3.977   3.4917
  3.974   3.4093
  3.971   3.3681
  3.968   3.3681
  3.965   3.3681
  3.962   3.3990
  3.959   3.4402
  3.956   3.4711
  3.953   3.4917
  3.950   3.4505
  3.947   3.4505
  3.944   3.4196
  3.941   3.4711
  3.938   3.4608
  3.935   3.4196
  3.932   3.3784
  3.929   3.4093
  3.926   3.4917
  3.923   3.5123
  3.920   3.4402
  3.917   3.4196
  3.914   3.3475
  3.911   3.3681
  3.908   3.4196
  3.905   3.4505
  3.902   3.4299
  3.899   3.4299
  3.896   3.4505
  3.893   3.4402
  3.890   3.3887
  3.887   3.3784
  3.884   3.4299
  3.882   3.4608
  3.879   3.5020
  3.876   3.5226
  3.873   3.4608
  3.870   3.4608
  3.867   3.4402
  3.864   3.4505
  3.861   3.4814
  3.858   3.4917
  3.856   3.4505
  3.853   3.4711
  3.850   3.4299
  3.847   3.3990
  3.844   3.4711
  3.841   3.4711
  3.838   3.3990
  3.836   3.4608
  3.833   3.5123
  3.830   3.5123
  3.827   3.4814
  3.824   3.5226
  3.822   3.5432
  3.819   3.5638
  3.816   3.5329
  3.813   3.4299
  3.810   3.4196
  3.807   3.4711
  3.805   3.5329
  3.802   3.5535
  3.799   3.5432
  3.796   3.5638
  3.794   3.5741
  3.791   3.5638
  3.788   3.5123
  3.785   3.5329
  3.782   3.5226
  3.780   3.5638
  3.777   3.6050
  3.774   3.6050
  3.771   3.5329
  3.769   3.5844
  3.766   3.6050
  3.763   3.5020
  3.761   3.4299
  3.758   3.5123
  3.755   3.4917
  3.752   3.4917
  3.750   3.5226
  3.747   3.6153
  3.744   3.6153
  3.742   3.5741
  3.739   3.5638
  3.736   3.6256
  3.733   3.5535
  3.731   3.5535
  3.728   3.6050
  3.725   3.5020
  3.723   3.4196
  3.720   3.5123
  3.717   3.5535
  3.715   3.5123
  3.712   3.4608
  3.709   3.4917
  3.707   3.4608
  3.704   3.4608
  3.702   3.4608
  3.699   3.5020
  3.696   3.5638
  3.694   3.5638
  3.691   3.5432
  3.688   3.5329
  3.686   3.4299
  3.683   3.3990
  3.680   3.5123
  3.678   3.5741
  3.675   3.5226
  3.673   3.4711
  3.670   3.4299
  3.667   3.4299
  3.665   3.5329
  3.662   3.6256
  3.660   3.5947
  3.657   3.4608
  3.655   3.3990
  3.652   3.5020
  3.649   3.4608
  3.647   3.4299
  3.644   3.4917
  3.642   3.5535
  3.639   3.4093
  3.637   3.3475
  3.634   3.3681
  3.632   3.3990
  3.629   3.3990
  3.626   3.4814
  3.624   3.4608
  3.621   3.3990
  3.619   3.3578
  3.616   3.4402
  3.614   3.5123
  3.611   3.4814
  3.609   3.4299
  3.606   3.4402
  3.604   3.4402
  3.601   3.4402
  3.599   3.4505
  3.596   3.4299
  3.594   3.4402
  3.591   3.4299
  3.589   3.4196
