Name:  Limestone CaCO3
Type:  Rock
Class:  Sedimentary
Subclass: Limestone 
Particle Size:  Whole rock chips
Sample No.:  ro337
Owner:  Larry Rowan, USGS
Wavelength range:  VNIR SWIR IR
Origin:  Ronda, Spain

Description:  Gray limestone 





Measurement:  Reflectance
First Column:  X
Second Column:  Y
X Units:  Wavelength (micrometers)
Y Units:  Reflectance (percent)
First X Value:  0.4
Last X Value:  14.01309
Number of X Values:  2826
Additional Information:  ls337a.txt

0.4	            .252000
0.401	        .250000
0.402	        .250000
0.403	        .249000
0.404	        .248000
0.405	        .249000
0.406	        .252000
0.407	        .249000
0.408	        .250000
0.409	        .249000
0.41	        .249000
0.411	        .249000
0.412	        .249000
0.413	        .249000
0.414	        .248000
0.415	        .249000
0.416	        .249000
0.417	        .249000
0.418	        .248000
0.419	        .249000
0.42	        .248000
0.421	        .249000
0.422	        .249000
0.423	        .249000
0.424	        .250000
0.425	        .250000
0.426	        .250000
0.427	        .248000
0.428	        .249000
0.429	        .249000
0.43	        .250000
0.431	        .250000
0.432	        .252000
0.433	        .252000
0.434	        .252000
0.435	        .252000
0.436	        .253000
0.437	        .252000
0.438	        .252000
0.439	        .250000
0.44	        .252000
0.441	        .252000
0.442	        .252000
0.443	        .253000
0.444	        .254000
0.445	        .254000
0.446	        .254000
0.447	        .254000
0.448	        .253000
0.449	        .254000
0.45	        .255000
0.451	        .254000
0.452	        .254000
0.453	        .253000
0.454	        .253000
0.455	        .254000
0.456	        .255000
0.457	        .255000
0.458	        .255000
0.459	        .253000
0.46	        .253000
0.461	        .252000
0.462	        .253000
0.463	        .253000
0.464	        .254000
0.465	        .253000
0.466	        .254000
0.467	        .253000
0.468	        .254000
0.469	        .255000
0.47	        .254000
0.471	        .255000
0.472	        .255000
0.473	        .255000
0.474	        .258000
0.475	        .256000
0.476	        .256000
0.477	        .256000
0.478	        .258000
0.479	        .258000
0.48	        .256000
0.481	        .255000
0.482	        .258000
0.483	        .258000
0.484	        .258000
0.485	        .260000
0.486	        .260000
0.487	        .260000
0.488	        .260000
0.489	        .260000
0.49	        .261000
0.491	        .261000
0.492	        .261000
0.493	        .261000
0.494	        .263000
0.495	        .263000
0.496	        .264000
0.497	        .264000
0.498	        .264000
0.499	        .264000
0.5	            .265000
0.501	        .265000
0.502	        .267000
0.503	        .265000
0.504	        .267000
0.505	        .269000
0.506	        .267000
0.507	        .269000
0.508	        .269000
0.509	        .271000
0.51	        .270000
0.511	        .269000
0.512	        .271000
0.513	        .271000
0.514	        .272000
0.515	        .271000
0.516	        .272000
0.517	        .274000
0.518	        .274000
0.519	        .272000
0.52	        .274000
0.521	        .275000
0.522	        .275000
0.523	        .275000
0.524	        .276000
0.525	        .276000
0.526	        .278000
0.527	        .275000
0.528	        .276000
0.529	        .276000
0.53	        .280000
0.531	        .280000
0.532	        .280000
0.533	        .280000
0.534	        .281000
0.535	        .280000
0.536	        .282000
0.537	        .278000
0.538	        .281000
0.539	        .283000
0.54	        .281000
0.541	        .282000
0.542	        .283000
0.543	        .284000
0.544	        .284000
0.545	        .283000
0.546	        .284000
0.547	        .284000
0.548	        .284000
0.549	        .286000
0.55	        .284000
0.551	        .286000
0.552	        .287000
0.553	        .288000
0.554	        .288000
0.555	        .287000
0.556	        .288000
0.557	        .289000
0.558	        .288000
0.559	        .294000
0.56	        .294000
0.561	        .294000
0.562	        .295000
0.563	        .295000
0.564	        .297000
0.565	        .295000
0.566	        .295000
0.567	        .295000
0.568	        .295000
0.569	        .295000
0.57	        .298000
0.571	        .300000
0.572	        .299000
0.573	        .299000
0.574	        .300000
0.575	        .300000
0.576	        .302000
0.577	        .302000
0.578	        .302000
0.579	        .299000
0.58	        .304000
0.581	        .304000
0.582	        .303000
0.583	        .304000
0.584	        .303000
0.585	        .303000
0.586	        .303000
0.587	        .304000
0.588	        .306000
0.589	        .305000
0.59	        .306000
0.591	        .304000
0.592	        .305000
0.593	        .309000
0.594	        .308000
0.595	        .306000
0.596	        .306000
0.597	        .308000
0.598	        .308000
0.599	        .308000
0.6	        .310000
0.601	        .310000
0.602	        .311000
0.603	        .311000
0.604	        .313000
0.605	        .311000
0.606	        .311000
0.607	        .313000
0.608	        .311000
0.609	        .311000
0.61	        .313000
0.611	        .313000
0.612	        .311000
0.613	        .315000
0.614	        .313000
0.615	        .313000
0.616	        .311000
0.617	        .314000
0.618	        .314000
0.619	        .315000
0.62	        .316000
0.621	        .317000
0.622	        .319000
0.623	        .319000
0.624	        .319000
0.625	        .317000
0.626	        .316000
0.627	        .319000
0.628	        .321000
0.629	        .321000
0.63	        .320000
0.631	        .320000
0.632	        .320000
0.633	        .321000
0.634	        .321000
0.635	        .321000
0.636	        .322000
0.637	        .322000
0.638	        .324000
0.639	        .321000
0.64	        .324000
0.641	        .324000
0.642	        .325000
0.643	        .325000
0.644	        .324000
0.645	        .325000
0.646	        .324000
0.647	        .326000
0.648	        .327000
0.649	        .327000
0.65	        .326000
0.651	        .325000
0.652	        .326000
0.653	        .328000
0.654	        .330000
0.655	        .328000
0.656	        .328000
0.657	        .328000
0.658	        .332000
0.659	        .331000
0.66	        .330000
0.661	        .328000
0.662	        .327000
0.663	        .330000
0.664	        .332000
0.665	        .332000
0.666	        .333000
0.667	        .332000
0.668	        .332000
0.669	        .333000
0.67	        .333000
0.671	        .333000
0.672	        .333000
0.673	        .332000
0.674	        .335000
0.675	        .335000
0.676	        .335000
0.677	        .335000
0.678	        .336000
0.679	        .338000
0.68	        .338000
0.681	        .337000
0.682	        .337000
0.683	        .338000
0.684	        .341000
0.685	        .339000
0.686	        .339000
0.687	        .341000
0.688	        .341000
0.689	        .342000
0.69	        .343000
0.691	        .342000
0.692	        .342000
0.693	        .342000
0.694	        .344000
0.695	        .346000
0.696	        .346000
0.697	        .344000
0.698	        .346000
0.699	        .344000
0.7	        .344000
0.701	        .346000
0.702	        .346000
0.703	        .347000
0.704	        .348000
0.705	        .349000
0.706	        .348000
0.707	        .350000
0.708	        .352000
0.709	        .349000
0.71	        .350000
0.711	        .353000
0.712	        .352000
0.713	        .352000
0.714	        .352000
0.715	        .352000
0.716	        .352000
0.717	        .350000
0.718	        .352000
0.719	        .354000
0.72	        .358000
0.721	        .358000
0.722	        .359000
0.723	        .359000
0.724	        .358000
0.725	        .358000
0.726	        .358000
0.727	        .360000
0.728	        .361000
0.729	        .360000
0.73	        .358000
0.731	        .360000
0.732	        .359000
0.733	        .360000
0.734	        .363000
0.735	        .361000
0.736	        .364000
0.737	        .364000
0.738	        .363000
0.739	        .366000
0.74	        .365000
0.741	        .366000
0.742	        .366000
0.743	        .365000
0.744	        .365000
0.745	        .366000
0.746	        .365000
0.747	        .370000
0.748	        .368000
0.749	        .368000
0.75	        .370000
0.751	        .371000
0.752	        .372000
0.753	        .371000
0.754	        .371000
0.755	        .371000
0.756	        .371000
0.757	        .372000
0.758	        .372000
0.759	        .377000
0.76	        .377000
0.761	        .376000
0.762	        .375000
0.763	        .376000
0.764	        .377000
0.765	        .376000
0.766	        .375000
0.767	        .376000
0.768	        .375000
0.769	        .377000
0.77	        .375000
0.771	        .379000
0.772	        .379000
0.773	        .379000
0.774	        .379000
0.775	        .381000
0.776	        .380000
0.777	        .380000
0.778	        .382000
0.779	        .381000
0.78	        .382000
0.781	        .383000
0.782	        .385000
0.783	        .383000
0.784	        .385000
0.785	        .385000
0.786	        .386000
0.787	        .387000
0.788	        .383000
0.789	        .385000
0.79	        .385000
0.791	        .386000
0.792	        .388000
0.793	        .389000
0.794	        .388000
0.795	        .387000
0.796	        .387000
0.797	        .388000
0.798	        .388000
0.799	        .388000
0.8	        .396000
0.804	        .396000
0.808	        .400000
0.812	        .399000
0.816	        .402000
0.82	        .402000
0.824	        .402000
0.828	        .402000
0.832	        .405000
0.836	        .408000
0.84	        .407000
0.844	        .408000
0.848	        .410000
0.852	        .413000
0.856	        .414000
0.86	        .415000
0.864	        .416000
0.868	        .418000
0.872	        .419000
0.876	        .419000
0.88	        .420000
0.884	        .420000
0.888	        .424000
0.892	        .425000
0.896	        .425000
0.9	        .427000
0.904	        .427000
0.908	        .429000
0.912	        .429000
0.916	        .432000
0.92	        .433000
0.924	        .430000
0.928	        .433000
0.932	        .435000
0.936	        .435000
0.94	        .435000
0.944	        .435000
0.948	        .437000
0.952	        .437000
0.956	        .438000
0.96	        .440000
0.964	        .441000
0.968	        .443000
0.972	        .441000
0.976	        .446000
0.98	        .446000
0.984	        .449000
0.988	        .452000
0.992	        .447000
0.996	        .447000
1	        .452000
1.004	        .449000
1.008	        .452000
1.012	        .455000
1.016	        .453000
1.02	        .459000
1.024	        .455000
1.028	        .459000
1.032	        .459000
1.036	        .459000
1.04	        .459000
1.044	        .460000
1.048	        .463000
1.052	        .463000
1.056	        .466000
1.06	        .466000
1.064	        .466000
1.068	        .468000
1.072	        .470000
1.076	        .473000
1.08	        .471000
1.084	        .474000
1.088	        .475000
1.092	        .475000
1.096	        .477000
1.1	        .479000
1.104	        .481000
1.108	        .482000
1.112	        .477000
1.116	        .481000
1.12	        .480000
1.124	        .481000
1.128	        .484000
1.132	        .486000
1.136	        .488000
1.14	        .488000
1.144	        .487000
1.148	        .490000
1.152	        .488000
1.156	        .490000
1.16	        .493000
1.164	        .496000
1.168	        .497000
1.172	        .496000
1.176	        .497000
1.18	        .498000
1.184	        .498000
1.188	        .498000
1.192	        .499000
1.196	        .499000
1.2	        .502000
1.204	        .502000
1.208	        .499000
1.212	        .501000
1.216	        .502000
1.22	        .504000
1.224	        .505000
1.228	        .505000
1.232	        .505000
1.236	        .507000
1.24	        .507000
1.244	        .510000
1.248	        .512000
1.252	        .512000
1.256	        .509000
1.26	        .513000
1.264	        .514000
1.268	        .512000
1.272	        .513000
1.276	        .515000
1.28	        .518000
1.284	        .519000
1.288	        .519000
1.292	        .519000
1.296	        .520000
1.3	        .520000
1.304	        .520000
1.308	        .521000
1.312	        .521000
1.316	        .521000
1.32	        .521000
1.324	        .524000
1.328	        .526000
1.332	        .526000
1.336	        .525000
1.34	        .526000
1.344	        .526000
1.348	        .524000
1.352	        .523000
1.356	        .524000
1.36	        .529000
1.364	        .532000
1.368	        .530000
1.372	        .521000
1.376	        .525000
1.38	        .529000
1.384	        .523000
1.388	        .523000
1.392	        .524000
1.396	        .523000
1.4	        .521000
1.404	        .521000
1.408	        .518000
1.412	        .521000
1.416	        .520000
1.42	        .520000
1.424	        .518000
1.428	        .518000
1.432	        .516000
1.436	        .519000
1.44	        .520000
1.444	        .523000
1.448	        .525000
1.452	        .527000
1.456	        .526000
1.46	        .529000
1.464	        .530000
1.468	        .530000
1.472	        .532000
1.476	        .535000
1.48	        .535000
1.484	        .536000
1.488	        .537000
1.492	        .538000
1.496	        .536000
1.5	        .541000
1.504	        .540000
1.508	        .541000
1.512	        .541000
1.516	        .541000
1.52	        .542000
1.524	        .545000
1.528	        .543000
1.532	        .542000
1.536	        .545000
1.54	        .542000
1.544	        .543000
1.548	        .547000
1.552	        .548000
1.556	        .547000
1.56	        .547000
1.564	        .551000
1.568	        .552000
1.572	        .548000
1.576	        .548000
1.58	        .552000
1.584	        .551000
1.588	        .549000
1.592	        .551000
1.596	        .552000
1.6	        .557000
1.604	        .558000
1.608	        .557000
1.612	        .553000
1.616	        .554000
1.62	        .553000
1.624	        .553000
1.628	        .557000
1.632	        .554000
1.636	        .554000
1.64	        .554000
1.644	        .556000
1.648	        .560000
1.652	        .562000
1.656	        .559000
1.66	        .560000
1.664	        .558000
1.668	        .559000
1.672	        .559000
1.676	        .560000
1.68	        .560000
1.684	        .558000
1.688	        .558000
1.692	        .562000
1.696	        .562000
1.7	        .563000
1.704	        .562000
1.708	        .557000
1.712	        .556000
1.716	        .554000
1.72	        .553000
1.724	        .557000
1.728	        .557000
1.732	        .556000
1.736	        .556000
1.74	        .558000
1.744	        .558000
1.748	        .556000
1.752	        .557000
1.756	        .558000
1.76	        .559000
1.764	        .560000
1.768	        .562000
1.772	        .563000
1.776	        .563000
1.78	        .565000
1.784	        .563000
1.788	        .559000
1.792	        .567000
1.796	        .563000
1.8	        .563000
1.804	        .559000
1.808	        .559000
1.812	        .559000
1.816	        .562000
1.82	        .556000
1.824	        .553000
1.828	        .552000
1.832	        .551000
1.836	        .551000
1.84	        .547000
1.844	        .547000
1.848	        .546000
1.852	        .540000
1.856	        .532000
1.86	        .521000
1.864	        .520000
1.868	        .521000
1.872	        .520000
1.876	        .525000
1.88	        .521000
1.884	        .519000
1.888	        .512000
1.892	        .504000
1.896	        .501000
1.9	        .498000
1.904	        .495000
1.908	        .496000
1.912	        .488000
1.916	        .488000
1.92	        .490000
1.924	        .485000
1.928	        .485000
1.932	        .486000
1.936	        .486000
1.94	        .486000
1.944	        .487000
1.948	        .488000
1.952	        .486000
1.956	        .485000
1.96	        .486000
1.964	        .487000
1.968	        .492000
1.972	        .490000
1.976	        .488000
1.98	        .487000
1.984	        .487000
1.988	        .490000
1.992	        .492000
1.996	        .498000
2	        .505000
2.004	        .513000
2.008	        .520000
2.012	        .525000
2.016	        .529000
2.02	        .529000
2.024	        .530000
2.028	        .536000
2.032	        .540000
2.036	        .537000
2.04	        .541000
2.044	        .545000
2.048	        .545000
2.052	        .543000
2.056	        .543000
2.06	        .547000
2.064	        .546000
2.068	        .548000
2.072	        .549000
2.076	        .552000
2.08	        .551000
2.084	        .552000
2.088	        .548000
2.092	        .548000
2.096	        .546000
2.1	        .547000
2.10043	        .541400
2.10128	        .542200
2.10213	        .540100
2.10298	        .537500
2.10383	        .538200
2.10469	        .537300
2.10554	        .539700
2.1064	        .542300
2.10725	        .540600
2.10811	        .539900
2.10897	        .540300
2.10983	        .541000
2.11068	        .540100
2.11154	        .541200
2.1124	        .540000
2.11327	        .535500
2.11413	        .530200
2.11499	        .531100
2.11585	        .533400
2.11672	        .532200
2.11758	        .531000
2.11844	        .533500
2.11931	        .535100
2.12018	        .535100
2.12104	        .536900
2.12191	        .538100
2.12278	        .533800
2.12365	        .530600
2.12452	        .532400
2.12539	        .532100
2.12626	        .532100
2.12713	        .535300
2.12801	        .533800
2.12888	        .530100
2.12975	        .527200
2.13063	        .530300
2.1315	        .533200
2.13238	        .533600
2.13326	        .530800
2.13414	        .526300
2.13501	        .528200
2.13589	        .531300
2.13677	        .532100
2.13765	        .530100
2.13854	        .526000
2.13942	        .523300
2.1403	        .520000
2.14118	        .516400
2.14207	        .512400
2.14295	        .515400
2.14384	        .517700
2.14473	        .514400
2.14561	        .509000
2.1465	        .509700
2.14739	        .510500
2.14828	        .507600
2.14917	        .503300
2.15006	        .501400
2.15095	        .502400
2.15185	        .504100
2.15274	        .506200
2.15363	        .508200
2.15453	        .505000
2.15542	        .500300
2.15632	        .502400
2.15722	        .508100
2.15811	        .505900
2.15901	        .503000
2.15991	        .504000
2.16081	        .506200
2.16171	        .504800
2.16261	        .502500
2.16352	        .502700
2.16442	        .508300
2.16532	        .511100
2.16623	        .510200
2.16713	        .510500
2.16804	        .511100
2.16894	        .510000
2.16985	        .514800
2.17076	        .518300
2.17167	        .517100
2.17258	        .515900
2.17349	        .517500
2.1744	        .517500
2.17531	        .520000
2.17623	        .518400
2.17714	        .516000
2.17805	        .518700
2.17897	        .524800
2.17989	        .525500
2.1808	        .525100
2.18172	        .525500
2.18264	        .525400
2.18356	        .525000
2.18448	        .525400
2.1854	        .521800
2.18632	        .521800
2.18724	        .522200
2.18816	        .522800
2.18909	        .524200
2.19001	        .527500
2.19094	        .527800
2.19186	        .524300
2.19279	        .524100
2.19372	        .526600
2.19464	        .524600
2.19557	        .523700
2.1965	        .524900
2.19743	        .523600
2.19837	        .520800
2.1993	        .522300
2.20023	        .524000
2.20116	        .523400
2.2021	        .521700
2.20303	        .522000
2.20397	        .518700
