Name:  Limestone CaCO3
Type:  Rock
Class: Sedimentary
Subclass: Limestone 
Particle Size:  Whole rock chips
Sample No.:  ro367
Owner:  Larry Rowan, USGS
Wavelength range:  VNIR SWIR IR
Origin:  Ronda, Spain

Description:  white limestone





Measurement:  Reflectance
First Column:  X
Second Column:  Y
X Units:  Wavelength (micrometers)
Y Units:  Reflectance (percent)
First X Value:  0.4
Last X Value:  14.01309
Number of X Values:  2826
Additional Information:  ls367a.txt

0.4	        .451000
0.401	        .457000
0.402	        .454000
0.403	        .457000
0.404	        .455000
0.405	        .460000
0.406	        .455000
0.407	        .455000
0.408	        .459000
0.409	        .458000
0.41	        .459000
0.411	        .464000
0.412	        .463000
0.413	        .462000
0.414	        .460000
0.415	        .464000
0.416	        .465000
0.417	        .465000
0.418	        .464000
0.419	        .465000
0.42	        .468000
0.421	        .470000
0.422	        .470000
0.423	        .473000
0.424	        .474000
0.425	        .473000
0.426	        .475000
0.427	        .469000
0.428	        .473000
0.429	        .471000
0.43	        .476000
0.431	        .476000
0.432	        .475000
0.433	        .476000
0.434	        .477000
0.435	        .485000
0.436	        .485000
0.437	        .485000
0.438	        .480000
0.439	        .486000
0.44	        .485000
0.441	        .482000
0.442	        .488000
0.443	        .485000
0.444	        .488000
0.445	        .490000
0.446	        .488000
0.447	        .487000
0.448	        .486000
0.449	        .488000
0.45	        .492000
0.451	        .495000
0.452	        .492000
0.453	        .491000
0.454	        .492000
0.455	        .491000
0.456	        .495000
0.457	        .490000
0.458	        .492000
0.459	        .490000
0.46	        .495000
0.461	        .498000
0.462	        .496000
0.463	        .497000
0.464	        .496000
0.465	        .496000
0.466	        .498000
0.467	        .496000
0.468	        .497000
0.469	        .498000
0.47	        .502000
0.471	        .501000
0.472	        .501000
0.473	        .498000
0.474	        .499000
0.475	        .504000
0.476	        .499000
0.477	        .501000
0.478	        .505000
0.479	        .508000
0.48	        .505000
0.481	        .503000
0.482	        .508000
0.483	        .505000
0.484	        .505000
0.485	        .508000
0.486	        .508000
0.487	        .507000
0.488	        .505000
0.489	        .507000
0.49	        .510000
0.491	        .512000
0.492	        .513000
0.493	        .510000
0.494	        .515000
0.495	        .512000
0.496	        .513000
0.497	        .518000
0.498	        .519000
0.499	        .515000
0.5	        .518000
0.501	        .521000
0.502	        .526000
0.503	        .520000
0.504	        .518000
0.505	        .520000
0.506	        .523000
0.507	        .525000
0.508	        .525000
0.509	        .523000
0.51	        .516000
0.511	        .519000
0.512	        .521000
0.513	        .524000
0.514	        .526000
0.515	        .525000
0.516	        .526000
0.517	        .530000
0.518	        .526000
0.519	        .524000
0.52	        .523000
0.521	        .526000
0.522	        .529000
0.523	        .525000
0.524	        .527000
0.525	        .530000
0.526	        .532000
0.527	        .531000
0.528	        .534000
0.529	        .537000
0.53	        .541000
0.531	        .540000
0.532	        .540000
0.533	        .540000
0.534	        .536000
0.535	        .534000
0.536	        .541000
0.537	        .538000
0.538	        .540000
0.539	        .541000
0.54	        .538000
0.541	        .537000
0.542	        .540000
0.543	        .538000
0.544	        .536000
0.545	        .541000
0.546	        .541000
0.547	        .542000
0.548	        .542000
0.549	        .542000
0.55	        .546000
0.551	        .545000
0.552	        .546000
0.553	        .545000
0.554	        .543000
0.555	        .542000
0.556	        .546000
0.557	        .543000
0.558	        .543000
0.559	        .548000
0.56	        .548000
0.561	        .543000
0.562	        .542000
0.563	        .546000
0.564	        .547000
0.565	        .551000
0.566	        .551000
0.567	        .552000
0.568	        .553000
0.569	        .549000
0.57	        .551000
0.571	        .551000
0.572	        .552000
0.573	        .549000
0.574	        .551000
0.575	        .551000
0.576	        .549000
0.577	        .551000
0.578	        .552000
0.579	        .552000
0.58	        .558000
0.581	        .557000
0.582	        .556000
0.583	        .558000
0.584	        .553000
0.585	        .553000
0.586	        .556000
0.587	        .554000
0.588	        .556000
0.589	        .554000
0.59	        .553000
0.591	        .560000
0.592	        .559000
0.593	        .562000
0.594	        .556000
0.595	        .553000
0.596	        .551000
0.597	        .547000
0.598	        .552000
0.599	        .554000
0.6	        .558000
0.601	        .559000
0.602	        .559000
0.603	        .557000
0.604	        .554000
0.605	        .554000
0.606	        .557000
0.607	        .557000
0.608	        .557000
0.609	        .554000
0.61	        .552000
0.611	        .552000
0.612	        .552000
0.613	        .552000
0.614	        .553000
0.615	        .559000
0.616	        .557000
0.617	        .556000
0.618	        .556000
0.619	        .553000
0.62	        .553000
0.621	        .553000
0.622	        .553000
0.623	        .556000
0.624	        .554000
0.625	        .556000
0.626	        .559000
0.627	        .559000
0.628	        .557000
0.629	        .556000
0.63	        .557000
0.631	        .558000
0.632	        .556000
0.633	        .559000
0.634	        .558000
0.635	        .557000
0.636	        .554000
0.637	        .559000
0.638	        .558000
0.639	        .556000
0.64	        .556000
0.641	        .557000
0.642	        .560000
0.643	        .562000
0.644	        .559000
0.645	        .554000
0.646	        .556000
0.647	        .558000
0.648	        .558000
0.649	        .558000
0.65	        .559000
0.651	        .558000
0.652	        .558000
0.653	        .560000
0.654	        .558000
0.655	        .559000
0.656	        .562000
0.657	        .560000
0.658	        .562000
0.659	        .560000
0.66	        .563000
0.661	        .556000
0.662	        .557000
0.663	        .562000
0.664	        .564000
0.665	        .558000
0.666	        .557000
0.667	        .559000
0.668	        .562000
0.669	        .562000
0.67	        .563000
0.671	        .564000
0.672	        .560000
0.673	        .562000
0.674	        .562000
0.675	        .560000
0.676	        .562000
0.677	        .563000
0.678	        .569000
0.679	        .567000
0.68	        .569000
0.681	        .568000
0.682	        .564000
0.683	        .562000
0.684	        .562000
0.685	        .564000
0.686	        .563000
0.687	        .563000
0.688	        .563000
0.689	        .568000
0.69	        .568000
0.691	        .567000
0.692	        .565000
0.693	        .570000
0.694	        .571000
0.695	        .579000
0.696	        .576000
0.697	        .574000
0.698	        .576000
0.699	        .576000
0.7	        .578000
0.701	        .575000
0.702	        .575000
0.703	        .574000
0.704	        .576000
0.705	        .578000
0.706	        .576000
0.707	        .575000
0.708	        .580000
0.709	        .580000
0.71	        .578000
0.711	        .578000
0.712	        .576000
0.713	        .578000
0.714	        .576000
0.715	        .578000
0.716	        .579000
0.717	        .580000
0.718	        .578000
0.719	        .575000
0.72	        .578000
0.721	        .576000
0.722	        .576000
0.723	        .578000
0.724	        .581000
0.725	        .580000
0.726	        .580000
0.727	        .578000
0.728	        .581000
0.729	        .580000
0.73	        .580000
0.731	        .580000
0.732	        .582000
0.733	        .581000
0.734	        .584000
0.735	        .582000
0.736	        .582000
0.737	        .581000
0.738	        .581000
0.739	        .581000
0.74	        .582000
0.741	        .582000
0.742	        .582000
0.743	        .579000
0.744	        .580000
0.745	        .579000
0.746	        .581000
0.747	        .585000
0.748	        .582000
0.749	        .582000
0.75	        .584000
0.751	        .582000
0.752	        .581000
0.753	        .581000
0.754	        .580000
0.755	        .579000
0.756	        .578000
0.757	        .579000
0.758	        .582000
0.759	        .585000
0.76	        .582000
0.761	        .582000
0.762	        .581000
0.763	        .581000
0.764	        .584000
0.765	        .584000
0.766	        .582000
0.767	        .581000
0.768	        .584000
0.769	        .584000
0.77	        .585000
0.771	        .584000
0.772	        .584000
0.773	        .586000
0.774	        .585000
0.775	        .585000
0.776	        .584000
0.777	        .581000
0.778	        .584000
0.779	        .584000
0.78	        .582000
0.781	        .581000
0.782	        .579000
0.783	        .582000
0.784	        .581000
0.785	        .582000
0.786	        .578000
0.787	        .582000
0.788	        .584000
0.789	        .582000
0.79	        .582000
0.791	        .582000
0.792	        .581000
0.793	        .581000
0.794	        .580000
0.795	        .579000
0.796	        .579000
0.797	        .587000
0.798	        .584000
0.799	        .584000
0.8	        .587000
0.804	        .586000
0.808	        .587000
0.812	        .590000
0.816	        .589000
0.82	        .587000
0.824	        .586000
0.828	        .586000
0.832	        .587000
0.836	        .589000
0.84	        .586000
0.844	        .585000
0.848	        .584000
0.852	        .586000
0.856	        .585000
0.86	        .582000
0.864	        .582000
0.868	        .585000
0.872	        .585000
0.876	        .584000
0.88	        .586000
0.884	        .580000
0.888	        .584000
0.892	        .582000
0.896	        .581000
0.9	        .584000
0.904	        .582000
0.908	        .581000
0.912	        .581000
0.916	        .581000
0.92	        .578000
0.924	        .580000
0.928	        .578000
0.932	        .580000
0.936	        .581000
0.94	        .576000
0.944	        .575000
0.948	        .578000
0.952	        .576000
0.956	        .576000
0.96	        .579000
0.964	        .576000
0.968	        .576000
0.972	        .579000
0.976	        .578000
0.98	        .579000
0.984	        .581000
0.988	        .579000
0.992	        .580000
0.996	        .580000
1	        .582000
1.004	        .580000
1.008	        .580000
1.012	        .580000
1.016	        .579000
1.02	        .581000
1.024	        .581000
1.028	        .578000
1.032	        .579000
1.036	        .579000
1.04	        .581000
1.044	        .581000
1.048	        .582000
1.052	        .582000
1.056	        .582000
1.06	        .585000
1.064	        .586000
1.068	        .587000
1.072	        .590000
1.076	        .586000
1.08	        .590000
1.084	        .590000
1.088	        .592000
1.092	        .591000
1.096	        .593000
1.1	        .592000
1.104	        .596000
1.108	        .598000
1.112	        .595000
1.116	        .591000
1.12	        .595000
1.124	        .593000
1.128	        .595000
1.132	        .598000
1.136	        .598000
1.14	        .596000
1.144	        .592000
1.148	        .596000
1.152	        .597000
1.156	        .595000
1.16	        .597000
1.164	        .598000
1.168	        .598000
1.172	        .601000
1.176	        .603000
1.18	        .603000
1.184	        .602000
1.188	        .602000
1.192	        .602000
1.196	        .601000
1.2	        .602000
1.204	        .603000
1.208	        .604000
1.212	        .601000
1.216	        .606000
1.22	        .606000
1.224	        .606000
1.228	        .608000
1.232	        .607000
1.236	        .603000
1.24	        .604000
1.244	        .604000
1.248	        .602000
1.252	        .603000
1.256	        .603000
1.26	        .601000
1.264	        .606000
1.268	        .607000
1.272	        .608000
1.276	        .608000
1.28	        .611000
1.284	        .612000
1.288	        .614000
1.292	        .612000
1.296	        .614000
1.3	        .612000
1.304	        .613000
1.308	        .612000
1.312	        .613000
1.316	        .612000
1.32	        .613000
1.324	        .614000
1.328	        .612000
1.332	        .612000
1.336	        .608000
1.34	        .607000
1.344	        .604000
1.348	        .603000
1.352	        .606000
1.356	        .604000
1.36	        .598000
1.364	        .598000
1.368	        .597000
1.372	        .596000
1.376	        .587000
1.38	        .581000
1.384	        .579000
1.388	        .570000
1.392	        .563000
1.396	        .558000
1.4	        .553000
1.404	        .541000
1.408	        .538000
1.412	        .535000
1.416	        .531000
1.42	        .530000
1.424	        .527000
1.428	        .525000
1.432	        .524000
1.436	        .523000
1.44	        .523000
1.444	        .524000
1.448	        .524000
1.452	        .525000
1.456	        .524000
1.46	        .527000
1.464	        .530000
1.468	        .530000
1.472	        .532000
1.476	        .535000
1.48	        .538000
1.484	        .541000
1.488	        .547000
1.492	        .549000
1.496	        .548000
1.5	        .554000
1.504	        .556000
1.508	        .557000
1.512	        .559000
1.516	        .560000
1.52	        .563000
1.524	        .564000
1.528	        .564000
1.532	        .564000
1.536	        .565000
1.54	        .568000
1.544	        .570000
1.548	        .569000
1.552	        .567000
1.556	        .569000
1.56	        .571000
1.564	        .574000
1.568	        .579000
1.572	        .580000
1.576	        .581000
1.58	        .582000
1.584	        .584000
1.588	        .584000
1.592	        .582000
1.596	        .582000
1.6	        .581000
1.604	        .590000
1.608	        .590000
1.612	        .587000
1.616	        .587000
1.62	        .586000
1.624	        .585000
1.628	        .582000
1.632	        .581000
1.636	        .580000
1.64	        .580000
1.644	        .581000
1.648	        .580000
1.652	        .580000
1.656	        .581000
1.66	        .582000
1.664	        .581000
1.668	        .582000
1.672	        .580000
1.676	        .579000
1.68	        .576000
1.684	        .574000
1.688	        .575000
1.692	        .573000
1.696	        .569000
1.7	        .567000
1.704	        .565000
1.708	        .563000
1.712	        .560000
1.716	        .553000
1.72	        .551000
1.724	        .549000
1.728	        .549000
1.732	        .547000
1.736	        .548000
1.74	        .546000
1.744	        .547000
1.748	        .551000
1.752	        .551000
1.756	        .553000
1.76	        .556000
1.764	        .560000
1.768	        .564000
1.772	        .564000
1.776	        .564000
1.78	        .563000
1.784	        .560000
1.788	        .559000
1.792	        .558000
1.796	        .554000
1.8	        .552000
1.804	        .549000
1.808	        .545000
1.812	        .541000
1.816	        .538000
1.82	        .529000
1.824	        .525000
1.828	        .519000
1.832	        .509000
1.836	        .503000
1.84	        .498000
1.844	        .495000
1.848	        .488000
1.852	        .477000
1.856	        .466000
1.86	        .457000
1.864	        .443000
1.868	        .433000
1.872	        .431000
1.876	        .432000
1.88	        .436000
1.884	        .431000
1.888	        .427000
1.892	        .418000
1.896	        .409000
1.9	        .403000
1.904	        .396000
1.908	        .392000
1.912	        .387000
1.916	        .383000
1.92	        .382000
1.924	        .379000
1.928	        .374000
1.932	        .376000
1.936	        .377000
1.94	        .377000
1.944	        .379000
1.948	        .380000
1.952	        .379000
1.956	        .379000
1.96	        .380000
1.964	        .381000
1.968	        .382000
1.972	        .385000
1.976	        .385000
1.98	        .385000
1.984	        .382000
1.988	        .382000
1.992	        .387000
1.996	        .396000
2	        .407000
2.004	        .415000
2.008	        .424000
2.012	        .431000
2.016	        .442000
2.02	        .447000
2.024	        .453000
2.028	        .459000
2.032	        .462000
2.036	        .463000
2.04	        .468000
2.044	        .471000
2.048	        .473000
2.052	        .474000
2.056	        .475000
2.06	        .477000
2.064	        .479000
2.068	        .479000
2.072	        .481000
2.076	        .486000
2.08	        .485000
2.084	        .484000
2.088	        .482000
2.092	        .480000
2.096	        .474000
2.1	        .473000
2.10043	        .465900
2.10128	        .462700
2.10213	        .462300
2.10298	        .468800
2.10383	        .471200
2.10469	        .468900
2.10554	        .466100
2.1064	        .463100
2.10725	        .459000
2.10811	        .459900
2.10897	        .463200
2.10983	        .461100
2.11068	        .460700
2.11154	        .458600
2.1124	        .455200
2.11327	        .455300
2.11413	        .455500
2.11499	        .459000
2.11585	        .459300
2.11672	        .457300
2.11758	        .458000
2.11844	        .454500
2.11931	        .447400
2.12018	        .449000
2.12104	        .452900
2.12191	        .452800
2.12278	        .451200
2.12365	        .449700
2.12452	        .447900
2.12539	        .448100
2.12626	        .448400
2.12713	        .448200
2.12801	        .447600
2.12888	        .448200
2.12975	        .447100
2.13063	        .443600
2.1315	        .442700
2.13238	        .442300
2.13326	        .439900
2.13414	        .437600
2.13501	        .439100
2.13589	        .442500
2.13677	        .437600
2.13765	        .432400
2.13854	        .427400
2.13942	        .425900
2.1403	        .425500
2.14118	        .421900
2.14207	        .416300
2.14295	        .414900
2.14384	        .415100
2.14473	        .410000
2.14561	        .403800
2.1465	        .403600
2.14739	        .401900
2.14828	        .400600
2.14917	        .396900
2.15006	        .396200
2.15095	        .396700
2.15185	        .399400
2.15274	        .396500
2.15363	        .393700
2.15453	        .395000
2.15542	        .395800
2.15632	        .396100
2.15722	        .397700
2.15811	        .398400
2.15901	        .397100
2.15991	        .396300
2.16081	        .401700
2.16171	        .400700
2.16261	        .396800
2.16352	        .395800
2.16442	        .400200
2.16532	        .405500
2.16623	        .407000
2.16713	        .406400
2.16804	        .407700
2.16894	        .409100
2.16985	        .412000
2.17076	        .413700
2.17167	        .415000
2.17258	        .416300
2.17349	        .415900
2.1744	        .418000
2.17531	        .420800
2.17623	        .420900
2.17714	        .422000
2.17805	        .422700
2.17897	        .427000
2.17989	        .427200
2.1808	        .426500
2.18172	        .427200
2.18264	        .429100
2.18356	        .429700
2.18448	        .432600
2.1854	        .434900
2.18632	        .433700
2.18724	        .429800
2.18816	        .431100
2.18909	        .432500
2.19001	        .432600
2.19094	        .431700
2.19186	        .435500
2.19279	        .437500
2.19372	        .435100
2.19464	        .432200
2.19557	        .430800
2.1965	        .430000
2.19743	        .428400
2.19837	        .428600
2.1993	        .429400
2.20023	        .428600
2.20116	        .427900
2.2021	        .424700
2.20303	        .422100
2.20397	        .422900
